File: documentation/exampledata/SandiaSLM50_3_asprinted_120419.txt
Filename:	C:\Program Files\Pyris\Data\Mingear\2019 SLMs\SandiaSLM50_3_asprinted_120419.dcd
Operator ID:	Mingear
Sample ID:	SLM 50.3 as printed 12.4.19
Comment: 	Al with lid
Serial Number:
Data Collected:	12/6/2019 12:14:10 PM
Sample Weight:	124.300 mg
Display Weight:	124.300
Validation
Validated:	No
By:
Date:
Calibration Information
Filename:	C:\Program Files\Pyris\Calibrations\Indium 28Apr2017.dcc
Date/Time:
Initial Conditions
Temperature:	 110.00 °C
Y Initial:	20.00 mW
Sample Rate:	Standard
Baseline Filename:	C:\Program Files\Pyris\Data\Mingear\2019 SLMs\SandiaSLM50_3_BL.dcd
End Condition:	Go To Load
Total Points in Run:	5280
Method Steps:
Pre-Run Actions
Start the Run
	Action occurs Immediately
Switch the Gas to Nitrogen at 20.0 ml/min
	Action occurs Immediately
1)	Hold for 2.0 min at 110.00°C

2)	Cool from 110.00°C to -10.00°C at 10.00°C/min

3)	Hold for 2.0 min at -10.00°C

4)	Heat from -10.00°C to 110.00°C at 10.00°C/min

5)	Hold for 2.0 min at 110.00°C

6)	Cool from 110.00°C to -10.00°C at 5.00°C/min

7)	Hold for 2.0 min at -10.00°C

8)	Heat from -10.00°C to 150.00°C at 5.00°C/min

1) DSC Isothermal
	Time     	Unsubtracted	Baseline     	Program     	Sample     	Approx.
	          	Heat Flow     	Heat Flow     	Temperature	Temperature	Gas Flow
	0.000000	20.4724	0.000000	110	94.539	0.000000
	0.016667	13.8081	0.000000	110	97.875	0.000000
	0.033333	-2.438919	0.000000	110	100.791	0.000000
	0.050000	15.3958	0.000000	110	102.958	0.000000
	0.066667	37.9905	0.000000	110	104.455	0.000000
	0.083333	52.8704	0.000000	110	105.452	0.000000
	0.100000	59.7216	0.000000	110	106.107	0.000000
	0.116667	61.0099	0.000000	110	106.537	0.000000
	0.133333	59.0822	0.000000	110	106.82	0.000000
	0.150000	55.5526	0.000000	110	107.01	0.000000
	0.166667	51.3661	0.000000	110	107.138	0.000000
	0.183333	47.058	0.000000	110	107.228	0.000000
	0.200000	42.8168	0.000000	110	107.291	0.000000
	0.216667	38.8091	0.000000	110	107.338	0.000000
	0.233333	34.9918	0.000000	110	107.371	0.000000
	0.250000	31.352	0.000000	110	107.398	0.000000
	0.266667	28.0349	0.000000	110	107.419	0.000000
	0.283333	24.864	0.000000	110	107.434	0.000000
	0.300000	21.7177	0.000000	110	107.447	0.000000
	0.316667	18.7015	0.000000	110	107.458	0.000000
	0.333333	15.7897	0.000000	110	107.469	0.000000
	0.350000	12.8671	0.000000	110	107.478	0.000000
	0.366667	10.0664	0.000000	110	107.486	0.000000
	0.383333	7.340130	0.000000	110	107.492	0.000000
	0.400000	4.824604	0.000000	110	107.498	0.000000
	0.416667	2.540454	0.000000	110	107.504	0.000000
	0.433333	0.236600	0.000000	110	107.508	0.000000
	0.450000	-1.988555	0.000000	110	107.514	0.000000
	0.466667	-4.330755	0.000000	110	107.519	0.000000
	0.483333	-6.781388	0.000000	110	107.525	0.000000
	0.500000	-9.298448	0.000000	110	107.53	0.000000
	0.516667	-11.8896	0.000000	110	107.535	0.000000
	0.533333	-14.5927	0.000000	110	107.54	0.000000
	0.550000	-17.5307	0.000000	110	107.545	0.000000
	0.566667	-20.8261	0.000000	110	107.551	0.000000
	0.583333	-24.4983	0.000000	110	107.556	0.000000
	0.600000	-28.4619	0.000000	110	107.563	0.000000
	0.616667	-32.6951	0.000000	110	107.569	0.000000
	0.633333	-37.4076	0.000000	110	107.576	0.000000
	0.650000	-42.4175	0.000000	110	107.585	0.000000
	0.666667	-47.4294	0.000000	110	107.593	0.000000
	0.683333	-52.4107	0.000000	110	107.603	0.000000
	0.700000	-57.398	0.000000	110	107.611	0.000000
	0.716667	-62.4117	0.000000	110	107.622	0.000000
	0.733333	-67.4784	0.000000	110	107.633	0.000000
	0.750000	-72.4772	0.000000	110	107.641	0.000000
	0.766667	-77.2536	0.000000	110	107.651	0.000000
	0.783333	-81.7338	0.000000	110	107.659	0.000000
	0.800000	-85.9031	0.000000	110	107.667	0.000000
	0.816667	-89.7939	0.000000	110	107.675	0.000000
	0.833333	-93.4244	0.000000	110	107.684	0.000000
	0.850000	-96.8091	0.000000	110	107.691	0.000000
	0.866667	-99.979	0.000000	110	107.699	0.000000
	0.883333	-102.938	0.000000	110	107.705	0.000000
	0.900000	-105.697	0.000000	110	107.71	0.000000
	0.916667	-108.264	0.000000	110	107.715	0.000000
	0.933333	-110.652	0.000000	110	107.72	0.000000
	0.950000	-112.861	0.000000	110	107.724	0.000000
	0.966667	-114.904	0.000000	110	107.729	0.000000
	0.983333	-116.795	0.000000	110	107.733	0.000000
	1.000000	-118.54	0.000000	110	107.738	0.000000
	1.016667	-120.152	0.000000	110	107.742	0.000000
	1.033333	-121.637	0.000000	110	107.745	0.000000
	1.050000	-123.004	0.000000	110	107.749	0.000000
	1.066667	-124.265	0.000000	110	107.751	0.000000
	1.083333	-125.431	0.000000	110	107.754	0.000000
	1.100000	-126.498	0.000000	110	107.756	0.000000
	1.116667	-127.479	0.000000	110	107.759	0.000000
	1.133333	-128.383	0.000000	110	107.761	0.000000
	1.150000	-129.213	0.000000	110	107.763	0.000000
	1.166667	-129.978	0.000000	110	107.764	0.000000
	1.183333	-130.681	0.000000	110	107.765	0.000000
	1.200000	-131.326	0.000000	110	107.766	0.000000
	1.216667	-131.917	0.000000	110	107.767	0.000000
	1.233333	-132.459	0.000000	110	107.769	0.000000
	1.250000	-132.959	0.000000	110	107.769	0.000000
	1.266667	-133.416	0.000000	110	107.77	0.000000
	1.283333	-133.836	0.000000	110	107.772	0.000000
	1.300000	-134.224	0.000000	110	107.773	0.000000
	1.316667	-134.581	0.000000	110	107.774	0.000000
	1.333333	-134.91	0.000000	110	107.774	0.000000
	1.350000	-135.21	0.000000	110	107.775	0.000000
	1.366667	-135.484	0.000000	110	107.775	0.000000
	1.383333	-135.739	0.000000	110	107.775	0.000000
	1.400000	-135.969	0.000000	110	107.777	0.000000
	1.416667	-136.18	0.000000	110	107.777	0.000000
	1.433333	-136.379	0.000000	110	107.778	0.000000
	1.450000	-136.558	0.000000	110	107.778	0.000000
	1.466667	-136.722	0.000000	110	107.779	0.000000
	1.483333	-136.871	0.000000	110	107.778	0.000000
	1.500000	-137.009	0.000000	110	107.778	0.000000
	1.516667	-137.135	0.000000	110	107.778	0.000000
	1.533333	-137.251	0.000000	110	107.778	0.000000
	1.550000	-137.358	0.000000	110	107.778	0.000000
	1.566667	-137.454	0.000000	110	107.779	0.000000
	1.583333	-137.542	0.000000	110	107.779	0.000000
	1.600000	-137.622	0.000000	110	107.779	0.000000
	1.616667	-137.698	0.000000	110	107.779	0.000000
	1.633333	-137.767	0.000000	110	107.78	0.000000
	1.650000	-137.83	0.000000	110	107.781	0.000000
	1.666667	-137.883	0.000000	110	107.78	0.000000
	1.683333	-137.934	0.000000	110	107.78	0.000000
	1.700000	-137.98	0.000000	110	107.78	0.000000
	1.716667	-138.026	0.000000	110	107.78	0.000000
	1.733333	-138.07	0.000000	110	107.78	0.000000
	1.750000	-138.109	0.000000	110	107.78	0.000000
	1.766667	-138.138	0.000000	110	107.781	0.000000
	1.783333	-138.167	0.000000	110	107.781	0.000000
	1.800000	-138.195	0.000000	110	107.781	0.000000
	1.816667	-138.223	0.000000	110	107.781	0.000000
	1.833333	-138.246	0.000000	110	107.781	0.000000
	1.850000	-138.268	0.000000	110	107.781	0.000000
	1.866667	-138.286	0.000000	110	107.781	0.000000
	1.883333	-138.303	0.000000	110	107.781	0.000000
	1.900000	-138.318	0.000000	110	107.781	0.000000
	1.916667	-138.335	0.000000	110	107.782	0.000000
	1.933333	-138.35	0.000000	110	107.782	0.000000
	1.950000	-138.362	0.000000	110	107.781	0.000000
	1.966667	-138.373	0.000000	110	107.781	0.000000
	1.983333	-138.387	0.000000	110	107.78	0.000000
2) DSC Temperature Scan
	2.000000	-138.453	0.000000	109.995	107.78	0.000000
	2.066667	-138.159	-0.295445	109.329	107.645	0.000000
	2.133333	-138.572	0.694247	108.662	107.145	0.000000
	2.200000	-140.92	1.190037	107.995	106.515	0.000000
	2.266667	-142.971	1.356166	107.329	105.856	0.000000
	2.333333	-144.422	1.482178	106.662	105.189	0.000000
	2.400000	-145.4	1.591672	105.995	104.52	0.000000
	2.466667	-146.032	1.706357	105.329	103.849	0.000000
	2.533333	-146.434	1.817149	104.662	103.176	0.000000
	2.600000	-146.676	1.936200	103.995	102.505	0.000000
	2.666667	-146.812	2.041918	103.329	101.832	0.000000
	2.733333	-146.879	2.156014	102.662	101.159	0.000000
	2.800000	-146.888	2.269991	101.995	100.487	0.000000
	2.866667	-146.868	2.383851	101.329	99.813	0.000000
	2.933333	-146.825	2.500070	100.662	99.14	0.000000
	3.000000	-146.765	2.609328	99.995	98.467	0.000000
	3.066667	-146.692	2.716934	99.329	97.793	0.000000
	3.133333	-146.609	2.834451	98.662	97.122	0.000000
	3.200000	-146.535	2.947012	97.995	96.448	0.000000
	3.266667	-146.442	3.058630	97.329	95.775	0.000000
	3.333333	-146.356	3.168950	96.662	95.102	0.000000
	3.400000	-146.264	3.280685	95.995	94.43	0.000000
	3.466667	-146.174	3.393365	95.329	93.757	0.000000
	3.533333	-146.076	3.500499	94.662	93.082	0.000000
	3.600000	-145.989	3.613768	93.995	92.41	0.000000
	3.666667	-145.903	3.727274	93.329	91.736	0.000000
	3.733333	-145.816	3.834644	92.662	91.063	0.000000
	3.800000	-145.729	3.943076	91.995	90.384	0.000000
	3.866667	-145.639	4.051390	91.329	89.707	0.000000
	3.933333	-145.558	4.167609	90.662	89.033	0.000000
	4.000000	-145.475	4.277457	89.995	88.359	0.000000
	4.066667	-145.396	4.384709	89.329	87.684	0.000000
	4.133333	-145.309	4.490663	88.662	87.011	0.000000
	4.200000	-145.222	4.598387	87.995	86.338	0.000000
	4.266667	-145.131	4.698087	87.329	85.664	0.000000
	4.333333	-145.04	4.806401	86.662	84.99	0.000000
	4.400000	-144.958	4.906574	85.995	84.316	0.000000
	4.466667	-144.873	5.013708	85.329	83.642	0.000000
	4.533333	-144.791	5.121314	84.662	82.969	0.000000
	4.600000	-144.706	5.224673	83.995	82.294	0.000000
	4.666667	-144.624	5.330981	83.329	81.619	0.000000
	4.733333	-144.542	5.440828	82.662	80.945	0.000000
	4.800000	-144.461	5.543715	81.995	80.27	0.000000
	4.866667	-144.382	5.649787	81.329	79.595	0.000000
	4.933333	-144.302	5.753971	80.662	78.922	0.000000
	5.000000	-144.231	5.859454	79.995	78.248	0.000000
	5.066667	-144.157	5.964582	79.329	77.574	0.000000
	5.133333	-144.085	6.068530	78.662	76.9	0.000000
	5.200000	-144.016	6.174248	77.995	76.226	0.000000
	5.266667	-143.951	6.273713	77.329	75.553	0.000000
	5.333333	-143.891	6.378841	76.662	74.878	0.000000
	5.400000	-143.841	6.483616	75.995	74.202	0.000000
	5.466667	-143.792	6.587210	75.329	73.527	0.000000
	5.533333	-143.746	6.689742	74.662	72.853	0.000000
	5.600000	-143.706	6.794045	73.995	72.177	0.000000
	5.666667	-143.677	6.895397	73.329	71.502	0.000000
	5.733333	-143.656	6.999346	72.662	70.825	0.000000
	5.800000	-143.646	7.102232	71.995	70.151	0.000000
	5.866667	-143.642	7.202405	71.329	69.476	0.000000
	5.933333	-143.653	7.304347	70.662	68.804	0.000000
	6.000000	-143.668	7.406290	69.995	68.129	0.000000
	6.066667	-143.707	7.509176	69.329	67.455	0.000000
	6.133333	-143.753	7.611827	68.662	66.781	0.000000
	6.200000	-143.821	7.714359	67.995	66.105	0.000000
	6.266667	-143.909	7.812880	67.329	65.432	0.000000
	6.333333	-144.02	7.912581	66.662	64.754	0.000000
	6.400000	-144.152	8.011102	65.995	64.081	0.000000
	6.466667	-144.308	8.114814	65.329	63.405	0.000000
	6.533333	-144.496	8.211565	64.662	62.731	0.000000
	6.600000	-144.725	8.313980	63.995	62.056	0.000000
	6.666667	-144.992	8.414152	63.329	61.383	0.000000
	6.733333	-145.309	8.514089	62.662	60.708	0.000000
	6.800000	-145.677	8.611902	61.995	60.036	0.000000
	6.866667	-146.113	8.711249	61.329	59.362	0.000000
	6.933333	-146.622	8.807410	60.662	58.69	0.000000
	7.000000	-147.218	8.909470	59.995	58.017	0.000000
	7.066667	-147.918	9.006811	59.329	57.344	0.000000
	7.133333	-148.748	9.107456	58.662	56.671	0.000000
	7.200000	-149.72	9.203499	57.995	55.998	0.000000
	7.266667	-150.794	9.296828	57.329	55.328	0.000000
	7.333333	-151.973	9.395821	56.662	54.655	0.000000
	7.400000	-153.222	9.496112	55.995	53.984	0.000000
	7.466667	-154.523	9.592509	55.329	53.312	0.000000
	7.533333	-155.846	9.685130	54.662	52.64	0.000000
	7.600000	-157.174	9.783887	53.995	51.968	0.000000
	7.666667	-158.502	9.883116	53.329	51.297	0.000000
	7.733333	-159.822	9.973849	52.662	50.625	0.000000
	7.800000	-161.077	10.0712	51.995	49.956	0.000000
	7.866667	-162.263	10.1653	51.329	49.285	0.000000
	7.933333	-163.372	10.2613	50.662	48.616	0.000000
	8.000000	-164.395	10.358	49.995	47.945	0.000000
	8.066667	-165.331	10.4496	49.329	47.273	0.000000
	8.133333	-166.161	10.544	48.662	46.604	0.000000
	8.200000	-166.877	10.6378	47.995	45.931	0.000000
	8.266667	-167.462	10.7339	47.329	45.261	0.000000
	8.333333	-167.883	10.8244	46.662	44.59	0.000000
	8.400000	-168.141	10.9209	45.995	43.915	0.000000
	8.466667	-168.229	11.0139	45.329	43.244	0.000000
	8.533333	-168.134	11.1036	44.662	42.573	0.000000
	8.600000	-167.862	11.1949	43.995	41.902	0.000000
	8.666667	-167.417	11.2893	43.329	41.231	0.000000
	8.733333	-166.798	11.3844	42.662	40.556	0.000000
	8.800000	-166.017	11.4685	41.995	39.884	0.000000
	8.866667	-165.102	11.5653	41.329	39.211	0.000000
	8.933333	-164.061	11.6527	40.662	38.536	0.000000
	9.000000	-162.921	11.7452	39.995	37.864	0.000000
	9.066667	-161.734	11.8365	39.329	37.189	0.000000
	9.133333	-160.534	11.9279	38.662	36.515	0.000000
	9.200000	-159.339	12.0155	37.995	35.84	0.000000
	9.266667	-158.168	12.109	37.329	35.167	0.000000
	9.333333	-157.028	12.1985	36.662	34.494	0.000000
	9.400000	-155.919	12.2841	35.995	33.821	0.000000
	9.466667	-154.855	12.3749	35.329	33.15	0.000000
	9.533333	-153.823	12.4651	34.662	32.476	0.000000
	9.600000	-152.819	12.5499	33.995	31.803	0.000000
	9.666667	-151.846	12.6366	33.329	31.132	0.000000
	9.733333	-150.892	12.7282	32.662	30.461	0.000000
	9.800000	-149.972	12.8155	31.995	29.789	0.000000
	9.866667	-149.071	12.9016	31.329	29.119	0.000000
	9.933333	-148.199	12.9898	30.662	28.448	0.000000
	10	-147.354	13.074	29.995	27.776	0.000000
	10.0667	-146.54	13.1651	29.329	27.105	0.000000
	10.1333	-145.757	13.2508	28.662	26.432	0.000000
	10.2	-145.014	13.333	27.995	25.762	0.000000
	10.2667	-144.299	13.4208	27.329	25.092	0.000000
	10.3333	-143.633	13.5056	26.662	24.422	0.000000
	10.4	-143	13.5921	25.995	23.755	0.000000
	10.4667	-142.41	13.6759	25.329	23.086	0.000000
	10.5333	-141.861	13.7625	24.662	22.417	0.000000
	10.6	-141.357	13.847	23.995	21.75	0.000000
	10.6667	-140.885	13.9254	23.329	21.082	0.000000
	10.7333	-140.466	14.0173	22.662	20.416	0.000000
	10.8	-140.054	14.0873	21.995	19.751	0.000000
	10.8667	-139.679	14.1774	21.329	19.087	0.000000
	10.9333	-139.345	14.2596	20.662	18.419	0.000000
	11	-139.045	14.3484	19.995	17.751	0.000000
	11.0667	-138.77	14.4308	19.329	17.083	0.000000
	11.1333	-138.521	14.5151	18.662	16.416	0.000000
	11.2	-138.288	14.5975	17.995	15.749	0.000000
	11.2667	-138.073	14.6785	17.329	15.082	0.000000
	11.3333	-137.873	14.7626	16.662	14.418	0.000000
	11.4	-137.687	14.8448	15.995	13.75	0.000000
	11.4667	-137.512	14.9255	15.329	13.082	0.000000
	11.5333	-137.347	15.0064	14.662	12.416	0.000000
	11.6	-137.191	15.0874	13.995	11.75	0.000000
	11.6667	-137.049	15.1678	13.329	11.084	0.000000
	11.7333	-136.908	15.2481	12.662	10.42	0.000000
	11.8	-136.776	15.3304	11.995	9.755000	0.000000
	11.8667	-136.648	15.4107	11.329	9.088000	0.000000
	11.9333	-136.529	15.4907	10.662	8.424000	0.000000
	12	-136.411	15.5698	9.995000	7.759000	0.000000
	12.0667	-136.299	15.6517	9.329000	7.093000	0.000000
	12.1333	-136.187	15.7252	8.662000	6.429000	0.000000
	12.2	-136.081	15.8089	7.995000	5.767000	0.000000
	12.2667	-135.977	15.8865	7.329000	5.104000	0.000000
	12.3333	-135.874	15.9643	6.662000	4.441000	0.000000
	12.4	-135.776	16.0437	5.995000	3.777000	0.000000
	12.4667	-135.681	16.1223	5.329000	3.115000	0.000000
	12.5333	-135.586	16.1985	4.662000	2.452000	0.000000
	12.6	-135.49	16.278	3.995000	1.788000	0.000000
	12.6667	-135.4	16.3549	3.329000	1.126000	0.000000
	12.7333	-135.312	16.4355	2.662000	0.463000	0.000000
	12.8	-135.222	16.5081	1.995000	-0.200000	0.000000
	12.8667	-135.137	16.5865	1.329000	-0.865000	0.000000
	12.9333	-135.051	16.6641	0.662000	-1.526000	0.000000
	13	-134.966	16.7389	-0.005000	-2.188000	0.000000
	13.0667	-134.884	16.817	-0.671000	-2.850000	0.000000
	13.1333	-134.8	16.8894	-1.338000	-3.508000	0.000000
	13.2	-134.719	16.9647	-2.005000	-4.168000	0.000000
	13.2667	-134.638	17.0427	-2.671000	-4.830000	0.000000
	13.3333	-134.562	17.1188	-3.338000	-5.491000	0.000000
	13.4	-134.482	17.1899	-4.005000	-6.152000	0.000000
	13.4667	-134.404	17.2638	-4.671000	-6.813000	0.000000
	13.5333	-134.328	17.3381	-5.338000	-7.473000	0.000000
	13.6	-134.254	17.4111	-6.005000	-8.132000	0.000000
	13.6667	-134.174	17.4824	-6.671000	-8.792000	0.000000
	13.7333	-134.104	17.5582	-7.338000	-9.451000	0.000000
	13.8	-134.031	17.628	-8.005000	-10.111	0.000000
	13.8667	-133.957	17.7	-8.671000	-10.77	0.000000
	13.9333	-133.884	17.7713	-9.338000	-11.43	0.000000
	13.9833	-133.83	17.8239	-9.838000	-11.923	0.000000
3) DSC Isothermal
	14	-133.753	17.8239	-10	-12.087	0.000000
	14.0167	-134.003	17.8239	-10	-12.25	0.000000
	14.0333	-133.754	17.8239	-10	-12.405	0.000000
	14.05	-133.556	17.8239	-10	-12.539	0.000000
	14.0667	-133.644	17.8239	-10	-12.649	0.000000
	14.0833	-133.819	17.8239	-10	-12.738	0.000000
	14.1	-133.943	17.8239	-10	-12.808	0.000000
	14.1167	-133.948	17.8239	-10	-12.863	0.000000
	14.1333	-133.828	17.8239	-10	-12.904	0.000000
	14.15	-133.6	17.8239	-10	-12.938	0.000000
	14.1667	-133.291	17.8239	-10	-12.964	0.000000
	14.1833	-132.926	17.8239	-10	-12.984	0.000000
	14.2	-132.528	17.8239	-10	-13.001	0.000000
	14.2167	-132.112	17.8239	-10	-13.013	0.000000
	14.2333	-131.69	17.8239	-10	-13.023	0.000000
	14.25	-131.27	17.8239	-10	-13.03	0.000000
	14.2667	-130.861	17.8239	-10	-13.036	0.000000
	14.2833	-130.464	17.8239	-10	-13.041	0.000000
	14.3	-130.084	17.8239	-10	-13.044	0.000000
	14.3167	-129.721	17.8239	-10	-13.048	0.000000
	14.3333	-129.38	17.8239	-10	-13.052	0.000000
	14.35	-129.057	17.8239	-10	-13.054	0.000000
[...]
	58.8333	-121.105	15.3344	4.170000	0.459000	0.000000
	59	-121.174	15.235	5.004000	1.292000	0.000000
	59.1667	-121.252	15.1376	5.837000	2.123000	0.000000
	59.3333	-121.32	15.0404	6.670000	2.955000	0.000000
	59.5	-121.395	14.9384	7.504000	3.788000	0.000000
	59.6667	-121.469	14.8441	8.337000	4.619000	0.000000
	59.8333	-121.543	14.741	9.170000	5.453000	0.000000
	60	-121.616	14.6436	10.004	6.283000	0.000000
	60.1667	-121.689	14.5421	10.837	7.116000	0.000000
	60.3333	-121.766	14.444	11.67	7.952000	0.000000
	60.5	-121.839	14.3406	12.504	8.785000	0.000000
	60.6667	-121.917	14.2426	13.337	9.619000	0.000000
	60.8333	-121.988	14.1438	14.17	10.456	0.000000
	61	-122.066	14.0376	15.004	11.291	0.000000
	61.1667	-122.144	13.9397	15.837	12.125	0.000000
	61.3333	-122.218	13.8327	16.67	12.959	0.000000
	61.5	-122.295	13.7316	17.504	13.794	0.000000
	61.6667	-122.371	13.6261	18.337	14.628	0.000000
	61.8333	-122.45	13.5251	19.17	15.463	0.000000
	62	-122.525	13.4226	20.004	16.298	0.000000
	62.1667	-122.604	13.3148	20.837	17.135	0.000000
	62.3333	-122.683	13.2119	21.67	17.971	0.000000
	62.5	-122.763	13.1054	22.504	18.809	0.000000
	62.6667	-122.836	13.0081	23.337	19.64	0.000000
	62.8333	-122.943	12.8993	24.17	20.471	0.000000
	63	-123.019	12.7936	25.004	21.307	0.000000
	63.1667	-123.086	12.6865	25.837	22.143	0.000000
	63.3333	-123.163	12.5772	26.67	22.979	0.000000
	63.5	-123.237	12.4734	27.504	23.816	0.000000
	63.6667	-123.317	12.3622	28.337	24.653	0.000000
	63.8333	-123.399	12.2593	29.17	25.489	0.000000
	64	-123.481	12.1466	30.004	26.327	0.000000
	64.1667	-123.56	12.0391	30.837	27.166	0.000000
	64.3333	-123.64	11.9309	31.67	28.004	0.000000
	64.5	-123.726	11.8188	32.504	28.846	0.000000
	64.6667	-123.802	11.7142	33.337	29.686	0.000000
	64.8333	-123.886	11.5995	34.17	30.526	0.000000
	65	-123.964	11.4934	35.004	31.363	0.000000
	65.1667	-124.05	11.3786	35.837	32.201	0.000000
	65.3333	-124.133	11.2683	36.67	33.041	0.000000
	65.5	-124.213	11.1576	37.504	33.879	0.000000
	65.6667	-124.296	11.0457	38.337	34.719	0.000000
	65.8333	-124.377	10.9332	39.17	35.56	0.000000
	66	-124.463	10.8198	40.004	36.4	0.000000
	66.1667	-124.544	10.7072	40.837	37.242	0.000000
	66.3333	-124.627	10.5931	41.67	38.083	0.000000
	66.5	-124.705	10.4811	42.504	38.924	0.000000
	66.6667	-124.788	10.3639	43.337	39.764	0.000000
	66.8333	-124.872	10.2515	44.17	40.605	0.000000
	67	-124.951	10.1349	45.004	41.447	0.000000
	67.1667	-125.037	10.0182	45.837	42.288	0.000000
	67.3333	-125.114	9.903764	46.67	43.13	0.000000
	67.5	-125.196	9.784123	47.504	43.973	0.000000
	67.6667	-125.272	9.672977	48.337	44.816	0.000000
	67.8333	-125.353	9.551449	49.17	45.659	0.000000
	68	-125.431	9.437235	50.004	46.503	0.000000
	68.1667	-125.503	9.320426	50.837	47.346	0.000000
	68.3333	-125.579	9.200903	51.67	48.193	0.000000
	68.5	-125.649	9.082796	52.504	49.035	0.000000
	68.6667	-125.719	8.967403	53.337	49.878	0.000000
	68.8333	-125.784	8.843514	54.17	50.722	0.000000
	69	-125.849	8.719390	55.004	51.566	0.000000
	69.1667	-125.902	8.601283	55.837	52.409	0.000000
	69.3333	-125.952	8.475507	56.67	53.255	0.000000
	69.5	-125.999	8.354568	57.504	54.098	0.000000
	69.6667	-126.036	8.233983	58.337	54.944	0.000000
	69.8333	-126.064	8.111628	59.17	55.79	0.000000
	70	-126.083	7.985498	60.004	56.633	0.000000
	70.1667	-126.094	7.857952	60.837	57.478	0.000000
	70.3333	-126.097	7.737957	61.67	58.322	0.000000
	70.5	-126.089	7.612063	62.504	59.167	0.000000
	70.6667	-126.068	7.491242	63.337	60.01	0.000000
	70.8333	-126.041	7.360392	64.17	60.853	0.000000
	71	-126.001	7.235088	65.004	61.697	0.000000
	71.1667	-125.945	7.110019	65.837	62.541	0.000000
	71.3333	-125.88	6.986839	66.67	63.388	0.000000
	71.5	-125.796	6.858349	67.504	64.231	0.000000
	71.6667	-125.703	6.732572	68.337	65.077	0.000000
	71.8333	-125.584	6.604318	69.17	65.922	0.000000
	72	-125.44	6.473115	70.004	66.766	0.000000
	72.1667	-125.273	6.351114	70.837	67.613	0.000000
	72.3333	-125.069	6.220736	71.67	68.457	0.000000
	72.5	-124.83	6.092482	72.504	69.3	0.000000
	72.6667	-124.534	5.963992	73.337	70.143	0.000000
	72.8333	-124.201	5.833968	74.17	70.987	0.000000
	73	-123.806	5.705124	75.004	71.832	0.000000
	73.1667	-123.361	5.571914	75.837	72.675	0.000000
	73.3333	-122.862	5.443188	76.67	73.518	0.000000
	73.5	-122.307	5.307855	77.504	74.362	0.000000
	73.6667	-121.709	5.180191	78.337	75.206	0.000000
	73.8333	-121.068	5.053588	79.17	76.049	0.000000
	74	-120.397	4.917547	80.004	76.891	0.000000
	74.1667	-119.695	4.785163	80.837	77.733	0.000000
	74.3333	-118.968	4.649476	81.67	78.576	0.000000
	74.5	-118.225	4.519334	82.504	79.418	0.000000
	74.6667	-117.464	4.384119	83.337	80.261	0.000000
	74.8333	-116.683	4.253269	84.17	81.103	0.000000
	75	-115.924	4.118171	85.004	81.946	0.000000
	75.1667	-115.165	3.983310	85.837	82.787	0.000000
	75.3333	-114.427	3.851044	86.67	83.631	0.000000
	75.5	-113.715	3.712171	87.504	84.474	0.000000
	75.6667	-113.051	3.579551	88.337	85.315	0.000000
	75.8333	-112.476	3.441032	89.17	86.157	0.000000
	76	-112.013	3.305935	90.004	87.001	0.000000
	76.1667	-111.714	3.166944	90.837	87.844	0.000000
	76.3333	-111.691	3.029251	91.67	88.687	0.000000
	76.5	-112.12	2.894507	92.504	89.533	0.000000
	76.6667	-113.525	2.757640	93.337	90.379	0.000000
	76.8333	-116.397	2.621362	94.17	91.227	0.000000
	77	-120.572	2.481427	95.004	92.078	0.000000
	77.1667	-124.481	2.345268	95.837	92.929	0.000000
	77.3333	-127.207	2.204035	96.67	93.777	0.000000
	77.5	-128.923	2.066696	97.504	94.622	0.000000
	77.6667	-129.966	1.928059	98.337	95.467	0.000000
	77.8333	-130.622	1.788832	99.17	96.309	0.000000
	78	-131.067	1.649015	100.004	97.154	0.000000
	78.1667	-131.399	1.504006	100.837	97.996	0.000000
	78.3333	-131.667	1.370207	101.67	98.838	0.000000
	78.5	-131.901	1.225434	102.504	99.682	0.000000
	78.6667	-132.107	1.088449	103.337	100.526	0.000000
	78.8333	-132.305	0.944502	104.17	101.368	0.000000
	79	-132.49	0.796544	105.004	102.212	0.000000
	79.1667	-132.665	0.654013	105.837	103.052	0.000000
	79.3333	-132.843	0.509949	106.67	103.896	0.000000
	79.5	-133.008	0.369070	107.504	104.737	0.000000
	79.6667	-133.171	0.224651	108.337	105.583	0.000000
	79.8333	-133.325	0.080233	109.17	106.425	0.000000
	80	-133.479	-0.065366	110.004	107.265	0.000000
	80.1667	-133.628	-0.207071	110.837	108.109	0.000000
	80.3333	-133.767	-0.353141	111.67	108.952	0.000000
	80.5	-133.906	-0.499802	112.504	109.796	0.000000
	80.6667	-134.027	-0.643276	113.337	110.639	0.000000
	80.8333	-134.144	-0.790999	114.17	111.481	0.000000
	81	-133.876	-0.933883	115.004	112.322	0.000000
	81.1667	-133.758	-1.082195	115.837	113.163	0.000000
	81.3333	-133.779	-1.226378	116.67	114.006	0.000000
	81.5	-133.923	-1.375516	117.504	114.847	0.000000
	81.6667	-134.099	-1.524772	118.337	115.689	0.000000
	81.8333	-134.307	-1.667657	119.17	116.529	0.000000
	82	-134.49	-1.820807	120.004	117.372	0.000000
	82.1667	-134.656	-1.965697	120.837	118.214	0.000000
	82.3333	-134.821	-2.121325	121.67	119.057	0.000000
	82.5	-135.004	-2.261260	122.504	119.899	0.000000
	82.6667	-135.172	-2.417359	123.337	120.74	0.000000
	82.8333	-135.335	-2.565790	124.17	121.583	0.000000
	83	-135.497	-2.717877	125.004	122.424	0.000000
	83.1667	-135.654	-2.869375	125.837	123.265	0.000000
	83.3333	-135.814	-3.018514	126.67	124.106	0.000000
	83.5	-135.979	-3.170955	127.504	124.95	0.000000
	83.6667	-136.131	-3.318796	128.337	125.789	0.000000
	83.8333	-136.285	-3.472299	129.17	126.631	0.000000
	84	-136.435	-3.623207	130.004	127.475	0.000000
	84.1667	-136.586	-3.773761	130.837	128.316	0.000000
	84.3333	-136.74	-3.928327	131.67	129.158	0.000000
	84.5	-136.885	-4.078763	132.504	130	0.000000
	84.6667	-137.035	-4.229081	133.337	130.841	0.000000
	84.8333	-137.179	-4.385063	134.17	131.684	0.000000
	85	-137.32	-4.537740	135.004	132.524	0.000000
	85.1667	-137.471	-4.699621	135.837	133.365	0.000000
	85.3333	-137.612	-4.847462	136.67	134.206	0.000000
	85.5	-137.759	-5.004387	137.504	135.047	0.000000
	85.6667	-137.899	-5.154469	138.337	135.889	0.000000
	85.8333	-138.047	-5.312810	139.17	136.732	0.000000
	86	-138.191	-5.464072	140.004	137.573	0.000000
	86.1667	-138.336	-5.624655	140.837	138.414	0.000000
	86.3333	-138.476	-5.780165	141.67	139.257	0.000000
	86.5	-138.61	-5.936854	142.504	140.098	0.000000
	86.6667	-138.751	-6.094488	143.337	140.94	0.000000
	86.8333	-138.894	-6.244452	144.17	141.781	0.000000
	87	-139.043	-6.400905	145.004	142.622	0.000000
	87.1667	-139.179	-6.561252	145.837	143.463	0.000000
	87.3333	-139.321	-6.724785	146.67	144.308	0.000000
	87.5	-139.456	-6.880059	147.504	145.148	0.000000
	87.6667	-139.605	-7.038872	148.337	145.991	0.000000
	87.8333	-139.75	-7.206652	149.17	146.831	0.000000
	87.9833	-139.88	-7.343402	149.92	147.59	0.000000