File: documentation/exampledata/SandiaSLM50_3_asispowder.txt
Filename:	C:\Program Files\Pyris\Data\Mingear\2019 SLMs\SandiaSLM50_3_asispowder.dcd
Operator ID:	Mingear
Sample ID:	SLM 50.3 as is powder
Comment: 	Al with lid
Serial Number:
Data Collected:	11/21/2019 4:26:25 PM
Sample Weight:	60.200 mg
Display Weight:	60.200
Validation
Validated:	No
By:
Date:
Calibration Information
Filename:	C:\Program Files\Pyris\Calibrations\Indium 28Apr2017.dcc
Date/Time:
Initial Conditions
Temperature:	 110.00 °C
Y Initial:	20.00 mW
Sample Rate:	Standard
Baseline Filename:	C:\Program Files\Pyris\Data\Mingear\2019 SLMs\SandiaSLM50_3_BL.dcd
End Condition:	Go To Load
Total Points in Run:	5280
Method Steps:
Pre-Run Actions
Start the Run
	Action occurs Immediately
Switch the Gas to Nitrogen at 20.0 ml/min
	Action occurs Immediately
1)	Hold for 2.0 min at 110.00°C

2)	Cool from 110.00°C to -10.00°C at 10.00°C/min

3)	Hold for 2.0 min at -10.00°C

4)	Heat from -10.00°C to 110.00°C at 10.00°C/min

5)	Hold for 2.0 min at 110.00°C

6)	Cool from 110.00°C to -10.00°C at 5.00°C/min

7)	Hold for 2.0 min at -10.00°C

8)	Heat from -10.00°C to 150.00°C at 5.00°C/min

1) DSC Isothermal
	Time     	Unsubtracted	Baseline     	Program     	Sample     	Approx.
	          	Heat Flow     	Heat Flow     	Temperature	Temperature	Gas Flow
	0.000000	16.8549	0.000000	110	94.633	0.000000
	0.016667	-36.9511	0.000000	110	97.96	0.000000
	0.033333	-84.7292	0.000000	110	100.804	0.000000
	0.050000	-111.938	0.000000	110	102.903	0.000000
	0.066667	-143.786	0.000000	110	104.362	0.000000
	0.083333	-179.03	0.000000	110	105.355	0.000000
	0.100000	-211.411	0.000000	110	106.029	0.000000
	0.116667	-238.44	0.000000	110	106.49	0.000000
	0.133333	-260.499	0.000000	110	106.809	0.000000
	0.150000	-278.507	0.000000	110	107.031	0.000000
	0.166667	-293.154	0.000000	110	107.19	0.000000
	0.183333	-304.873	0.000000	110	107.304	0.000000
	0.200000	-313.969	0.000000	110	107.388	0.000000
	0.216667	-320.836	0.000000	110	107.447	0.000000
	0.233333	-325.907	0.000000	110	107.493	0.000000
	0.250000	-329.607	0.000000	110	107.525	0.000000
	0.266667	-332.288	0.000000	110	107.548	0.000000
	0.283333	-334.235	0.000000	110	107.566	0.000000
	0.300000	-335.648	0.000000	110	107.581	0.000000
	0.316667	-336.674	0.000000	110	107.591	0.000000
	0.333333	-337.421	0.000000	110	107.599	0.000000
	0.350000	-337.969	0.000000	110	107.604	0.000000
	0.366667	-338.368	0.000000	110	107.608	0.000000
	0.383333	-338.655	0.000000	110	107.612	0.000000
	0.400000	-338.867	0.000000	110	107.614	0.000000
	0.416667	-339.022	0.000000	110	107.617	0.000000
	0.433333	-339.132	0.000000	110	107.618	0.000000
	0.450000	-339.214	0.000000	110	107.619	0.000000
	0.466667	-339.278	0.000000	110	107.62	0.000000
	0.483333	-339.324	0.000000	110	107.621	0.000000
	0.500000	-339.354	0.000000	110	107.621	0.000000
	0.516667	-339.379	0.000000	110	107.623	0.000000
	0.533333	-339.396	0.000000	110	107.623	0.000000
	0.550000	-339.409	0.000000	110	107.623	0.000000
	0.566667	-339.413	0.000000	110	107.624	0.000000
	0.583333	-339.422	0.000000	110	107.624	0.000000
	0.600000	-339.424	0.000000	110	107.625	0.000000
	0.616667	-339.427	0.000000	110	107.626	0.000000
	0.633333	-339.426	0.000000	110	107.627	0.000000
	0.650000	-339.429	0.000000	110	107.627	0.000000
	0.666667	-339.427	0.000000	110	107.627	0.000000
	0.683333	-339.426	0.000000	110	107.627	0.000000
	0.700000	-339.426	0.000000	110	107.627	0.000000
	0.716667	-339.426	0.000000	110	107.627	0.000000
	0.733333	-339.425	0.000000	110	107.626	0.000000
	0.750000	-339.427	0.000000	110	107.626	0.000000
	0.766667	-339.425	0.000000	110	107.628	0.000000
	0.783333	-339.42	0.000000	110	107.628	0.000000
	0.800000	-339.419	0.000000	110	107.628	0.000000
	0.816667	-339.417	0.000000	110	107.628	0.000000
	0.833333	-339.418	0.000000	110	107.629	0.000000
	0.850000	-339.416	0.000000	110	107.63	0.000000
	0.866667	-339.413	0.000000	110	107.63	0.000000
	0.883333	-339.412	0.000000	110	107.629	0.000000
	0.900000	-339.409	0.000000	110	107.629	0.000000
	0.916667	-339.413	0.000000	110	107.629	0.000000
	0.933333	-339.414	0.000000	110	107.629	0.000000
	0.950000	-339.411	0.000000	110	107.629	0.000000
	0.966667	-339.41	0.000000	110	107.63	0.000000
	0.983333	-339.407	0.000000	110	107.629	0.000000
	1.000000	-339.403	0.000000	110	107.63	0.000000
	1.016667	-339.404	0.000000	110	107.63	0.000000
	1.033333	-339.404	0.000000	110	107.633	0.000000
	1.050000	-339.405	0.000000	110	107.633	0.000000
	1.066667	-339.402	0.000000	110	107.632	0.000000
	1.083333	-339.398	0.000000	110	107.633	0.000000
	1.100000	-339.399	0.000000	110	107.634	0.000000
	1.116667	-339.399	0.000000	110	107.632	0.000000
	1.133333	-339.397	0.000000	110	107.633	0.000000
	1.150000	-339.395	0.000000	110	107.632	0.000000
	1.166667	-339.396	0.000000	110	107.632	0.000000
	1.183333	-339.396	0.000000	110	107.634	0.000000
	1.200000	-339.394	0.000000	110	107.634	0.000000
	1.216667	-339.394	0.000000	110	107.635	0.000000
	1.233333	-339.393	0.000000	110	107.635	0.000000
	1.250000	-339.389	0.000000	110	107.635	0.000000
	1.266667	-339.391	0.000000	110	107.636	0.000000
	1.283333	-339.392	0.000000	110	107.636	0.000000
	1.300000	-339.39	0.000000	110	107.636	0.000000
	1.316667	-339.388	0.000000	110	107.636	0.000000
	1.333333	-339.385	0.000000	110	107.636	0.000000
	1.350000	-339.388	0.000000	110	107.636	0.000000
	1.366667	-339.39	0.000000	110	107.637	0.000000
	1.383333	-339.388	0.000000	110	107.637	0.000000
	1.400000	-339.385	0.000000	110	107.637	0.000000
	1.416667	-339.384	0.000000	110	107.637	0.000000
	1.433333	-339.384	0.000000	110	107.637	0.000000
	1.450000	-339.38	0.000000	110	107.638	0.000000
	1.466667	-339.38	0.000000	110	107.637	0.000000
	1.483333	-339.383	0.000000	110	107.637	0.000000
	1.500000	-339.385	0.000000	110	107.637	0.000000
	1.516667	-339.384	0.000000	110	107.637	0.000000
	1.533333	-339.383	0.000000	110	107.638	0.000000
	1.550000	-339.381	0.000000	110	107.638	0.000000
	1.566667	-339.377	0.000000	110	107.639	0.000000
	1.583333	-339.376	0.000000	110	107.638	0.000000
	1.600000	-339.379	0.000000	110	107.638	0.000000
	1.616667	-339.38	0.000000	110	107.639	0.000000
	1.633333	-339.379	0.000000	110	107.64	0.000000
	1.650000	-339.376	0.000000	110	107.639	0.000000
	1.666667	-339.377	0.000000	110	107.639	0.000000
	1.683333	-339.377	0.000000	110	107.638	0.000000
	1.700000	-339.376	0.000000	110	107.639	0.000000
	1.716667	-339.376	0.000000	110	107.639	0.000000
	1.733333	-339.375	0.000000	110	107.639	0.000000
	1.750000	-339.374	0.000000	110	107.639	0.000000
	1.766667	-339.374	0.000000	110	107.638	0.000000
	1.783333	-339.374	0.000000	110	107.638	0.000000
	1.800000	-339.371	0.000000	110	107.639	0.000000
	1.816667	-339.371	0.000000	110	107.638	0.000000
	1.833333	-339.373	0.000000	110	107.639	0.000000
	1.850000	-339.375	0.000000	110	107.638	0.000000
	1.866667	-339.375	0.000000	110	107.639	0.000000
	1.883333	-339.375	0.000000	110	107.639	0.000000
	1.900000	-339.374	0.000000	110	107.639	0.000000
	1.916667	-339.372	0.000000	110	107.639	0.000000
	1.933333	-339.371	0.000000	110	107.64	0.000000
	1.950000	-339.371	0.000000	110	107.64	0.000000
	1.966667	-339.37	0.000000	110	107.641	0.000000
	1.983333	-339.369	0.000000	110	107.64	0.000000
2) DSC Temperature Scan
	2.000000	-339.425	0.000000	109.995	107.639	0.000000
	2.066667	-340.343	-0.295445	109.329	107.504	0.000000
	2.133333	-343.291	0.694247	108.662	107.004	0.000000
	2.200000	-345.246	1.190037	107.995	106.374	0.000000
	2.266667	-345.886	1.356166	107.329	105.714	0.000000
	2.333333	-346.013	1.482178	106.662	105.044	0.000000
	2.400000	-345.975	1.591672	105.995	104.371	0.000000
	2.466667	-345.881	1.706357	105.329	103.701	0.000000
	2.533333	-345.771	1.817149	104.662	103.029	0.000000
	2.600000	-345.657	1.936200	103.995	102.355	0.000000
	2.666667	-345.546	2.041918	103.329	101.684	0.000000
	2.733333	-345.433	2.156014	102.662	101.01	0.000000
	2.800000	-345.316	2.269991	101.995	100.337	0.000000
	2.866667	-345.202	2.383851	101.329	99.663	0.000000
	2.933333	-345.091	2.500070	100.662	98.989	0.000000
	3.000000	-344.972	2.609328	99.995	98.316	0.000000
	3.066667	-344.855	2.716934	99.329	97.644	0.000000
	3.133333	-344.744	2.834451	98.662	96.971	0.000000
	3.200000	-344.634	2.947012	97.995	96.299	0.000000
	3.266667	-344.52	3.058630	97.329	95.626	0.000000
	3.333333	-344.408	3.168950	96.662	94.953	0.000000
	3.400000	-344.288	3.280685	95.995	94.279	0.000000
	3.466667	-344.177	3.393365	95.329	93.607	0.000000
	3.533333	-344.068	3.500499	94.662	92.932	0.000000
	3.600000	-343.959	3.613768	93.995	92.259	0.000000
	3.666667	-343.851	3.727274	93.329	91.585	0.000000
	3.733333	-343.745	3.834644	92.662	90.912	0.000000
	3.800000	-343.627	3.943076	91.995	90.238	0.000000
	3.866667	-343.526	4.051390	91.329	89.563	0.000000
	3.933333	-343.416	4.167609	90.662	88.884	0.000000
	4.000000	-343.312	4.277457	89.995	88.211	0.000000
	4.066667	-343.205	4.384709	89.329	87.538	0.000000
	4.133333	-343.093	4.490663	88.662	86.864	0.000000
	4.200000	-342.987	4.598387	87.995	86.191	0.000000
	4.266667	-342.874	4.698087	87.329	85.518	0.000000
	4.333333	-342.776	4.806401	86.662	84.844	0.000000
	4.400000	-342.671	4.906574	85.995	84.171	0.000000
	4.466667	-342.571	5.013708	85.329	83.495	0.000000
	4.533333	-342.471	5.121314	84.662	82.822	0.000000
	4.600000	-342.368	5.224673	83.995	82.147	0.000000
	4.666667	-342.269	5.330981	83.329	81.475	0.000000
	4.733333	-342.164	5.440828	82.662	80.798	0.000000
	4.800000	-342.06	5.543715	81.995	80.124	0.000000
	4.866667	-341.96	5.649787	81.329	79.451	0.000000
	4.933333	-341.863	5.753971	80.662	78.777	0.000000
	5.000000	-341.764	5.859454	79.995	78.103	0.000000
	5.066667	-341.663	5.964582	79.329	77.429	0.000000
	5.133333	-341.564	6.068530	78.662	76.754	0.000000
	5.200000	-341.469	6.174248	77.995	76.081	0.000000
	5.266667	-341.376	6.273713	77.329	75.406	0.000000
	5.333333	-341.288	6.378841	76.662	74.732	0.000000
	5.400000	-341.196	6.483616	75.995	74.057	0.000000
	5.466667	-341.109	6.587210	75.329	73.381	0.000000
	5.533333	-341.019	6.689742	74.662	72.707	0.000000
	5.600000	-340.939	6.794045	73.995	72.032	0.000000
	5.666667	-340.864	6.895397	73.329	71.357	0.000000
	5.733333	-340.795	6.999346	72.662	70.681	0.000000
	5.800000	-340.73	7.102232	71.995	70.005	0.000000
	5.866667	-340.672	7.202405	71.329	69.33	0.000000
	5.933333	-340.627	7.304347	70.662	68.656	0.000000
	6.000000	-340.598	7.406290	69.995	67.982	0.000000
	6.066667	-340.587	7.509176	69.329	67.308	0.000000
	6.133333	-340.602	7.611827	68.662	66.635	0.000000
	6.200000	-340.651	7.714359	67.995	65.96	0.000000
	6.266667	-340.72	7.812880	67.329	65.285	0.000000
	6.333333	-340.828	7.912581	66.662	64.61	0.000000
	6.400000	-340.962	8.011102	65.995	63.935	0.000000
	6.466667	-341.13	8.114814	65.329	63.26	0.000000
	6.533333	-341.321	8.211565	64.662	62.587	0.000000
	6.600000	-341.548	8.313980	63.995	61.911	0.000000
	6.666667	-341.792	8.414152	63.329	61.238	0.000000
	6.733333	-342.049	8.514089	62.662	60.566	0.000000
	6.800000	-342.321	8.611902	61.995	59.892	0.000000
	6.866667	-342.598	8.711249	61.329	59.219	0.000000
	6.933333	-342.915	8.807410	60.662	58.548	0.000000
	7.000000	-343.295	8.909470	59.995	57.874	0.000000
	7.066667	-343.723	9.006811	59.329	57.2	0.000000
	7.133333	-344.051	9.107456	58.662	56.525	0.000000
	7.200000	-344.138	9.203499	57.995	55.852	0.000000
	7.266667	-344.062	9.296828	57.329	55.177	0.000000
	7.333333	-343.936	9.395821	56.662	54.502	0.000000
	7.400000	-343.811	9.496112	55.995	53.827	0.000000
	7.466667	-343.709	9.592509	55.329	53.153	0.000000
	7.533333	-343.631	9.685130	54.662	52.479	0.000000
	7.600000	-343.587	9.783887	53.995	51.805	0.000000
	7.666667	-343.569	9.883116	53.329	51.129	0.000000
	7.733333	-343.579	9.973849	52.662	50.453	0.000000
	7.800000	-343.617	10.0712	51.995	49.782	0.000000
	7.866667	-343.687	10.1653	51.329	49.108	0.000000
	7.933333	-343.813	10.2613	50.662	48.435	0.000000
	8.000000	-343.998	10.358	49.995	47.763	0.000000
	8.066667	-344.257	10.4496	49.329	47.09	0.000000
	8.133333	-344.591	10.544	48.662	46.417	0.000000
	8.200000	-344.979	10.6378	47.995	45.746	0.000000
	8.266667	-345.389	10.7339	47.329	45.074	0.000000
	8.333333	-345.825	10.8244	46.662	44.4	0.000000
	8.400000	-346.267	10.9209	45.995	43.727	0.000000
	8.466667	-346.716	11.0139	45.329	43.056	0.000000
	8.533333	-347.159	11.1036	44.662	42.386	0.000000
	8.600000	-347.6	11.1949	43.995	41.715	0.000000
	8.666667	-348.05	11.2893	43.329	41.046	0.000000
	8.733333	-348.515	11.3844	42.662	40.376	0.000000
	8.800000	-349.005	11.4685	41.995	39.704	0.000000
	8.866667	-349.538	11.5653	41.329	39.035	0.000000
	8.933333	-350.14	11.6527	40.662	38.364	0.000000
	9.000000	-350.845	11.7452	39.995	37.696	0.000000
	9.066667	-351.651	11.8365	39.329	37.026	0.000000
	9.133333	-352.575	11.9279	38.662	36.357	0.000000
	9.200000	-353.588	12.0155	37.995	35.688	0.000000
	9.266667	-354.604	12.109	37.329	35.02	0.000000
	9.333333	-355.449	12.1985	36.662	34.352	0.000000
	9.400000	-355.883	12.2841	35.995	33.685	0.000000
	9.466667	-355.583	12.3749	35.329	33.015	0.000000
	9.533333	-354.254	12.4651	34.662	32.345	0.000000
	9.600000	-351.964	12.5499	33.995	31.669	0.000000
	9.666667	-349.318	12.6366	33.329	30.996	0.000000
	9.733333	-346.893	12.7282	32.662	30.319	0.000000
	9.800000	-344.874	12.8155	31.995	29.644	0.000000
	9.866667	-343.222	12.9016	31.329	28.972	0.000000
	9.933333	-341.854	12.9898	30.662	28.297	0.000000
	10	-340.715	13.074	29.995	27.627	0.000000
	10.0667	-339.765	13.1651	29.329	26.956	0.000000
	10.1333	-338.957	13.2508	28.662	26.283	0.000000
	10.2	-338.252	13.333	27.995	25.612	0.000000
	10.2667	-337.649	13.4208	27.329	24.942	0.000000
	10.3333	-337.129	13.5056	26.662	24.274	0.000000
	10.4	-336.669	13.5921	25.995	23.606	0.000000
	10.4667	-336.26	13.6759	25.329	22.936	0.000000
	10.5333	-335.895	13.7625	24.662	22.269	0.000000
	10.6	-335.571	13.847	23.995	21.601	0.000000
	10.6667	-335.267	13.9254	23.329	20.932	0.000000
	10.7333	-334.983	14.0173	22.662	20.268	0.000000
	10.8	-334.723	14.0873	21.995	19.603	0.000000
	10.8667	-334.509	14.1774	21.329	18.937	0.000000
	10.9333	-334.313	14.2596	20.662	18.271	0.000000
	11	-334.129	14.3484	19.995	17.603	0.000000
	11.0667	-333.956	14.4308	19.329	16.936	0.000000
	11.1333	-333.791	14.5151	18.662	16.268	0.000000
	11.2	-333.632	14.5975	17.995	15.601	0.000000
	11.2667	-333.482	14.6785	17.329	14.936	0.000000
	11.3333	-333.34	14.7626	16.662	14.27	0.000000
	11.4	-333.199	14.8448	15.995	13.605	0.000000
	11.4667	-333.061	14.9255	15.329	12.937	0.000000
	11.5333	-332.934	15.0064	14.662	12.271	0.000000
	11.6	-332.805	15.0874	13.995	11.605	0.000000
	11.6667	-332.679	15.1678	13.329	10.939	0.000000
	11.7333	-332.558	15.2481	12.662	10.275	0.000000
	11.8	-332.436	15.3304	11.995	9.609000	0.000000
	11.8667	-332.315	15.4107	11.329	8.943000	0.000000
	11.9333	-332.2	15.4907	10.662	8.277000	0.000000
	12	-332.08	15.5698	9.995000	7.611000	0.000000
	12.0667	-331.962	15.6517	9.329000	6.946000	0.000000
	12.1333	-331.849	15.7252	8.662000	6.282000	0.000000
	12.2	-331.741	15.8089	7.995000	5.619000	0.000000
	12.2667	-331.631	15.8865	7.329000	4.955000	0.000000
	12.3333	-331.523	15.9643	6.662000	4.292000	0.000000
	12.4	-331.416	16.0437	5.995000	3.629000	0.000000
	12.4667	-331.314	16.1223	5.329000	2.966000	0.000000
	12.5333	-331.212	16.1985	4.662000	2.303000	0.000000
	12.6	-331.111	16.278	3.995000	1.639000	0.000000
	12.6667	-331.011	16.3549	3.329000	0.975000	0.000000
	12.7333	-330.914	16.4355	2.662000	0.312000	0.000000
	12.8	-330.818	16.5081	1.995000	-0.351000	0.000000
	12.8667	-330.721	16.5865	1.329000	-1.015000	0.000000
	12.9333	-330.626	16.6641	0.662000	-1.677000	0.000000
	13	-330.535	16.7389	-0.005000	-2.339000	0.000000
	13.0667	-330.44	16.817	-0.671000	-2.999000	0.000000
	13.1333	-330.349	16.8894	-1.338000	-3.659000	0.000000
	13.2	-330.256	16.9647	-2.005000	-4.321000	0.000000
	13.2667	-330.167	17.0427	-2.671000	-4.982000	0.000000
	13.3333	-330.074	17.1188	-3.338000	-5.645000	0.000000
	13.4	-329.986	17.1899	-4.005000	-6.306000	0.000000
	13.4667	-329.899	17.2638	-4.671000	-6.968000	0.000000
	13.5333	-329.811	17.3381	-5.338000	-7.626000	0.000000
	13.6	-329.723	17.4111	-6.005000	-8.288000	0.000000
	13.6667	-329.636	17.4824	-6.671000	-8.949000	0.000000
	13.7333	-329.55	17.5582	-7.338000	-9.610000	0.000000
	13.8	-329.467	17.628	-8.005000	-10.268	0.000000
	13.8667	-329.383	17.7	-8.671000	-10.927	0.000000
	13.9333	-329.299	17.7713	-9.338000	-11.586	0.000000
	13.9833	-329.239	17.8239	-9.838000	-12.08	0.000000
3) DSC Isothermal
	14	-329.16	17.8239	-10	-12.244	0.000000
	14.0167	-329.372	17.8239	-10	-12.408	0.000000
	14.0333	-329.002	17.8239	-10	-12.563	0.000000
	14.05	-328.549	17.8239	-10	-12.695	0.000000
	14.0667	-328.204	17.8239	-10	-12.805	0.000000
	14.0833	-327.823	17.8239	-10	-12.894	0.000000
	14.1	-327.357	17.8239	-10	-12.963	0.000000
	14.1167	-326.823	17.8239	-10	-13.017	0.000000
	14.1333	-326.263	17.8239	-10	-13.058	0.000000
	14.15	-325.715	17.8239	-10	-13.09	0.000000
	14.1667	-325.206	17.8239	-10	-13.114	0.000000
	14.1833	-324.748	17.8239	-10	-13.133	0.000000
	14.2	-324.348	17.8239	-10	-13.15	0.000000
	14.2167	-324.002	17.8239	-10	-13.162	0.000000
	14.2333	-323.708	17.8239	-10	-13.172	0.000000
	14.25	-323.465	17.8239	-10	-13.18	0.000000
	14.2667	-323.263	17.8239	-10	-13.185	0.000000
	14.2833	-323.096	17.8239	-10	-13.19	0.000000
	14.3	-322.957	17.8239	-10	-13.193	0.000000
	14.3167	-322.846	17.8239	-10	-13.196	0.000000
	14.3333	-322.757	17.8239	-10	-13.198	0.000000
	14.35	-322.684	17.8239	-10	-13.199	0.000000
[...]
	66	-324.682	10.8198	40.004	36.371	0.000000
	66.1667	-324.782	10.7072	40.837	37.213	0.000000
	66.3333	-324.889	10.5931	41.67	38.058	0.000000
	66.5	-324.989	10.4811	42.504	38.899	0.000000
	66.6667	-325.09	10.3639	43.337	39.739	0.000000
	66.8333	-325.191	10.2515	44.17	40.58	0.000000
	67	-325.288	10.1349	45.004	41.422	0.000000
	67.1667	-325.385	10.0182	45.837	42.263	0.000000
	67.3333	-325.477	9.903764	46.67	43.105	0.000000
	67.5	-325.573	9.784123	47.504	43.948	0.000000
	67.6667	-325.667	9.672977	48.337	44.791	0.000000
	67.8333	-325.755	9.551449	49.17	45.634	0.000000
	68	-325.839	9.437235	50.004	46.477	0.000000
	68.1667	-325.912	9.320426	50.837	47.322	0.000000
	68.3333	-325.979	9.200903	51.67	48.166	0.000000
	68.5	-326.032	9.082796	52.504	49.009	0.000000
	68.6667	-326.073	8.967403	53.337	49.851	0.000000
	68.8333	-326.085	8.843514	54.17	50.695	0.000000
	69	-326.08	8.719390	55.004	51.54	0.000000
	69.1667	-326.031	8.601283	55.837	52.382	0.000000
	69.3333	-325.94	8.475507	56.67	53.228	0.000000
	69.5	-325.777	8.354568	57.504	54.073	0.000000
	69.6667	-325.533	8.233983	58.337	54.917	0.000000
	69.8333	-325.184	8.111628	59.17	55.762	0.000000
	70	-324.688	7.985498	60.004	56.608	0.000000
	70.1667	-324.021	7.857952	60.837	57.452	0.000000
	70.3333	-323.185	7.737957	61.67	58.295	0.000000
	70.5	-322.208	7.612063	62.504	59.136	0.000000
	70.6667	-321.157	7.491242	63.337	59.977	0.000000
	70.8333	-320.159	7.360392	64.17	60.819	0.000000
	71	-319.358	7.235088	65.004	61.661	0.000000
	71.1667	-318.898	7.110019	65.837	62.506	0.000000
	71.3333	-318.864	6.986839	66.67	63.351	0.000000
	71.5	-319.248	6.858349	67.504	64.196	0.000000
	71.6667	-319.937	6.732572	68.337	65.042	0.000000
	71.8333	-320.776	6.604318	69.17	65.89	0.000000
	72	-321.627	6.473115	70.004	66.736	0.000000
	72.1667	-322.392	6.351114	70.837	67.581	0.000000
	72.3333	-323.02	6.220736	71.67	68.427	0.000000
	72.5	-323.51	6.092482	72.504	69.271	0.000000
	72.6667	-323.879	5.963992	73.337	70.117	0.000000
	72.8333	-324.15	5.833968	74.17	70.962	0.000000
	73	-324.344	5.705124	75.004	71.807	0.000000
	73.1667	-324.478	5.571914	75.837	72.653	0.000000
	73.3333	-324.577	5.443188	76.67	73.496	0.000000
	73.5	-324.681	5.307855	77.504	74.343	0.000000
	73.6667	-324.856	5.180191	78.337	75.186	0.000000
	73.8333	-325.127	5.053588	79.17	76.035	0.000000
	74	-325.503	4.917547	80.004	76.88	0.000000
	74.1667	-325.982	4.785163	80.837	77.725	0.000000
	74.3333	-326.503	4.649476	81.67	78.569	0.000000
	74.5	-327.041	4.519334	82.504	79.414	0.000000
	74.6667	-327.55	4.384119	83.337	80.258	0.000000
	74.8333	-327.998	4.253269	84.17	81.105	0.000000
	75	-328.394	4.118171	85.004	81.948	0.000000
	75.1667	-328.737	3.983310	85.837	82.795	0.000000
	75.3333	-329.04	3.851044	86.67	83.638	0.000000
	75.5	-329.315	3.712171	87.504	84.481	0.000000
	75.6667	-329.58	3.579551	88.337	85.327	0.000000
	75.8333	-329.829	3.441032	89.17	86.169	0.000000
	76	-330.083	3.305935	90.004	87.012	0.000000
	76.1667	-330.348	3.166944	90.837	87.854	0.000000
	76.3333	-330.628	3.029251	91.67	88.7	0.000000
	76.5	-330.948	2.894507	92.504	89.545	0.000000
	76.6667	-331.293	2.757640	93.337	90.39	0.000000
	76.8333	-331.631	2.621362	94.17	91.234	0.000000
	77	-331.973	2.481427	95.004	92.078	0.000000
	77.1667	-332.31	2.345268	95.837	92.922	0.000000
	77.3333	-332.635	2.204035	96.67	93.764	0.000000
	77.5	-332.928	2.066696	97.504	94.607	0.000000
	77.6667	-333.178	1.928059	98.337	95.454	0.000000
	77.8333	-333.409	1.788832	99.17	96.297	0.000000
	78	-333.611	1.649015	100.004	97.138	0.000000
	78.1667	-333.803	1.504006	100.837	97.98	0.000000
	78.3333	-333.982	1.370207	101.67	98.823	0.000000
	78.5	-334.148	1.225434	102.504	99.665	0.000000
	78.6667	-334.311	1.088449	103.337	100.509	0.000000
	78.8333	-334.468	0.944502	104.17	101.353	0.000000
	79	-334.627	0.796544	105.004	102.195	0.000000
	79.1667	-334.779	0.654013	105.837	103.036	0.000000
	79.3333	-334.926	0.509949	106.67	103.88	0.000000
	79.5	-335.076	0.369070	107.504	104.722	0.000000
	79.6667	-335.228	0.224651	108.337	105.564	0.000000
	79.8333	-335.376	0.080233	109.17	106.406	0.000000
	80	-335.524	-0.065366	110.004	107.246	0.000000
	80.1667	-335.67	-0.207071	110.837	108.089	0.000000
	80.3333	-335.817	-0.353141	111.67	108.931	0.000000
	80.5	-335.961	-0.499802	112.504	109.776	0.000000
	80.6667	-336.108	-0.643276	113.337	110.619	0.000000
	80.8333	-336.253	-0.790999	114.17	111.461	0.000000
	81	-336.397	-0.933883	115.004	112.304	0.000000
	81.1667	-336.54	-1.082195	115.837	113.147	0.000000
	81.3333	-336.68	-1.226378	116.67	113.991	0.000000
	81.5	-336.825	-1.375516	117.504	114.836	0.000000
	81.6667	-336.973	-1.524772	118.337	115.676	0.000000
	81.8333	-337.114	-1.667657	119.17	116.515	0.000000
	82	-337.262	-1.820807	120.004	117.36	0.000000
	82.1667	-337.405	-1.965697	120.837	118.202	0.000000
	82.3333	-337.558	-2.121325	121.67	119.045	0.000000
	82.5	-337.708	-2.261260	122.504	119.887	0.000000
	82.6667	-337.857	-2.417359	123.337	120.727	0.000000
	82.8333	-338.006	-2.565790	124.17	121.57	0.000000
	83	-338.152	-2.717877	125.004	122.411	0.000000
	83.1667	-338.31	-2.869375	125.837	123.252	0.000000
	83.3333	-338.458	-3.018514	126.67	124.093	0.000000
	83.5	-338.608	-3.170955	127.504	124.933	0.000000
	83.6667	-338.754	-3.318796	128.337	125.773	0.000000
	83.8333	-338.908	-3.472299	129.17	126.618	0.000000
	84	-339.062	-3.623207	130.004	127.46	0.000000
	84.1667	-339.218	-3.773761	130.837	128.301	0.000000
	84.3333	-339.367	-3.928327	131.67	129.143	0.000000
	84.5	-339.521	-4.078763	132.504	129.985	0.000000
	84.6667	-339.667	-4.229081	133.337	130.828	0.000000
	84.8333	-339.823	-4.385063	134.17	131.669	0.000000
	85	-339.977	-4.537740	135.004	132.508	0.000000
	85.1667	-340.133	-4.699621	135.837	133.353	0.000000
	85.3333	-340.291	-4.847462	136.67	134.194	0.000000
	85.5	-340.434	-5.004387	137.504	135.037	0.000000
	85.6667	-340.589	-5.154469	138.337	135.879	0.000000
	85.8333	-340.751	-5.312810	139.17	136.719	0.000000
	86	-340.902	-5.464072	140.004	137.561	0.000000
	86.1667	-341.057	-5.624655	140.837	138.405	0.000000
	86.3333	-341.209	-5.780165	141.67	139.245	0.000000
	86.5	-341.369	-5.936854	142.504	140.088	0.000000
	86.6667	-341.519	-6.094488	143.337	140.93	0.000000
	86.8333	-341.682	-6.244452	144.17	141.77	0.000000
	87	-341.843	-6.400905	145.004	142.61	0.000000
	87.1667	-341.993	-6.561252	145.837	143.452	0.000000
	87.3333	-342.157	-6.724785	146.67	144.292	0.000000
	87.5	-342.312	-6.880059	147.504	145.134	0.000000
	87.6667	-342.473	-7.038872	148.337	145.975	0.000000
	87.8333	-342.63	-7.206652	149.17	146.817	0.000000
	87.9833	-342.771	-7.343402	149.92	147.575	0.000000

	TEMPERATURE CALIBRATION INPUTS:
Calibration Type:    	One-point Calibration

Reference	Expected (°C)	Measured (°C)	Method
Indium          	   156.600	   158.150	                 	Used
Zinc            	   419.470	   419.470	                 	Not Used
                	     0.000	     0.000	                 	Not Used
                	     0.000	     0.000	                 	Not Used
                	     0.000	     0.000	                 	Not Used
                	     0.000	     0.000	                 	Not Used
                	     0.000	     0.000	                 	Not Used
                	     0.000	     0.000	                 	Not Used
                	     0.000	     0.000	                 	Not Used
                	     0.000	     0.000	                 	Not Used
	MULTI-POINT VALUES:
Offsets (°C)	Slopes	Boundaries (°C)
    -1.550	     1.000	     0.000
    -1.550	     1.000	   158.660
    -1.550	     1.000	   158.660
    -1.550	     1.000	   158.660
    -1.550	     1.000	   158.660
    -1.550	     1.000	   158.660
    -1.550	     1.000	   158.660
    -1.550	     1.000	   158.660
    -1.550	     1.000	   158.660
    -1.550	     1.000	   158.660
    -1.550	     1.000	   158.660

NEWPAGE

	DSC HEAT FLOW CALIBRATION INPUTS:
Range: Low (320 mW)
Reference Material:	Indium
Expected Enthalpy:	  28.450 J/g	Measured Enthalpy:	  24.809 J/g
Weight:	   4.447 mg	Method:	IndCal

	DSC HEAT FLOW CALIBRATION COMPUTED RESULTS:
Range: Low (320 mW)
Low Range Factor	   1.180	Date:	4/28/2017 1:12:14 PM

	FURNACE CALIBRATION INPUTS:
Minimum	  50.000 °C
Maximum	 450.000 °C

	FURNACE CALIBRATION COMPUTED RESULTS:
Date:	6/20/2016 10:12:19 AM
Offset	   0.000 °C
Factor	   1.000

	PROFILE VALUES FOR THIS DATA:

Software Version	10.1.0.0412
Firmware Version	Part Number N5378059  Revision 64
Instrument Serial Number
Load Temperature	40.0 °C
Go To Temp Rate	200.0 °C/min
Maximum Allowed Temperature	600.0 °C
Helium Purge	Was Not Used
Liquid Nitrogen	Was Not Used
Data taken using the	Normal Range
Filter Factor	0
Lag Compensation	0
Cooling Device
10 Second Delay	Was Used