File: documentation/exampledata/SMA anode bar boeing2.txt
Filename:	C:\Program Files\Pyris\Data\Mingear\2022\SMA anode bar boeing2.dcd
Operator ID:	mingear
Sample ID:	SMA anode bar
Comment:
Serial Number:
Data Collected:	1/20/2022 10:20:28 AM
Sample Weight:	58.300 mg
Display Weight:	58.300
Validation
Validated:	No
By:
Date:
Calibration Information
Filename:	C:\Program Files\Pyris\Calibrations\Indium 28Apr2017.dcc
Date/Time:
Initial Conditions
Temperature:	 40.00 °C
Y Initial:	20.00 mW
Sample Rate:	Standard
Baseline Filename:	C:\Program Files\Pyris\Data\Mingear\backgroundmizuki_2.dcd
End Condition:	Go To:	40.00°C
Total Points in Run:	5400
Method Steps:
Pre-Run Actions
Start the Run
	Action occurs Immediately
Switch the Gas to Nitrogen at 20.0 ml/min
	Action occurs Immediately
1)	Hold for 1.0 min at 40.00°C

2)	Heat from 40.00°C to 150.00°C at 10.00°C/min

3)	Hold for 2.0 min at 150.00°C

4)	Cool from 150.00°C to -20.00°C at 10.00°C/min

5)	Hold for 2.0 min at -20.00°C

6)	Heat from -20.00°C to 150.00°C at 10.00°C/min

7)	Hold for 2.0 min at 150.00°C

8)	Cool from 150.00°C to -20.00°C at 10.00°C/min

9)	Hold for 2.0 min at -20.00°C

10)	Heat from -20.00°C to 150.00°C at 10.00°C/min

11)	Hold for 2.0 min at 150.00°C

1) DSC Isothermal
	Time     	Unsubtracted	Baseline     	Program     	Sample     	Approx.
	          	Heat Flow     	Heat Flow     	Temperature	Temperature	Gas Flow
	0.000000	19.9971	0.000000	40	40.538	0.000000
	0.016667	19.995	0.000000	40	40.534	0.000000
	0.033333	19.9942	0.000000	40	40.53	0.000000
	0.050000	19.9915	0.000000	40	40.527	0.000000
	0.066667	19.9884	0.000000	40	40.524	0.000000
	0.083333	19.9937	0.000000	40	40.52	0.000000
	0.100000	19.991	0.000000	40	40.515	0.000000
	0.116667	19.988	0.000000	40	40.511	0.000000
	0.133333	19.988	0.000000	40	40.508	0.000000
	0.150000	19.9841	0.000000	40	40.504	0.000000
	0.166667	19.9837	0.000000	40	40.501	0.000000
	0.183333	19.983	0.000000	40	40.496	0.000000
	0.200000	19.9803	0.000000	40	40.494	0.000000
	0.216667	19.9744	0.000000	40	40.49	0.000000
	0.233333	19.9705	0.000000	40	40.487	0.000000
	0.250000	19.9673	0.000000	40	40.483	0.000000
	0.266667	19.9667	0.000000	40	40.478	0.000000
	0.283333	19.9671	0.000000	40	40.473	0.000000
	0.300000	19.967	0.000000	40	40.468	0.000000
	0.316667	19.9593	0.000000	40	40.464	0.000000
	0.333333	19.9599	0.000000	40	40.461	0.000000
	0.350000	19.9607	0.000000	40	40.456	0.000000
	0.366667	19.9593	0.000000	40	40.453	0.000000
	0.383333	19.9549	0.000000	40	40.449	0.000000
	0.400000	19.9543	0.000000	40	40.445	0.000000
	0.416667	19.9501	0.000000	40	40.442	0.000000
	0.433333	19.9442	0.000000	40	40.438	0.000000
	0.450000	19.9404	0.000000	40	40.435	0.000000
	0.466667	19.9408	0.000000	40	40.431	0.000000
	0.483333	19.9404	0.000000	40	40.428	0.000000
	0.500000	19.937	0.000000	40	40.423	0.000000
	0.516667	19.9338	0.000000	40	40.42	0.000000
	0.533333	19.9307	0.000000	40	40.417	0.000000
	0.550000	19.9289	0.000000	40	40.413	0.000000
	0.566667	19.9285	0.000000	40	40.409	0.000000
	0.583333	19.929	0.000000	40	40.404	0.000000
	0.600000	19.926	0.000000	40	40.399	0.000000
	0.616667	19.9206	0.000000	40	40.395	0.000000
	0.633333	19.9209	0.000000	40	40.392	0.000000
	0.650000	19.9218	0.000000	40	40.387	0.000000
	0.666667	19.9185	0.000000	40	40.384	0.000000
	0.683333	19.9165	0.000000	40	40.38	0.000000
	0.700000	19.9145	0.000000	40	40.377	0.000000
	0.716667	19.9126	0.000000	40	40.373	0.000000
	0.733333	19.9097	0.000000	40	40.371	0.000000
	0.750000	19.9073	0.000000	40	40.367	0.000000
	0.766667	19.9036	0.000000	40	40.363	0.000000
	0.783333	19.9008	0.000000	40	40.359	0.000000
	0.800000	19.8992	0.000000	40	40.356	0.000000
	0.816667	19.8965	0.000000	40	40.352	0.000000
	0.833333	19.8945	0.000000	40	40.349	0.000000
	0.850000	19.8929	0.000000	40	40.346	0.000000
	0.866667	19.8945	0.000000	40	40.342	0.000000
	0.883333	19.893	0.000000	40	40.338	0.000000
	0.900000	19.8929	0.000000	40	40.336	0.000000
	0.916667	19.8931	0.000000	40	40.333	0.000000
	0.933333	19.8894	0.000000	40	40.327	0.000000
	0.950000	19.8881	0.000000	40	40.321	0.000000
	0.966667	19.8867	0.000000	40	40.318	0.000000
	0.983333	19.886	0.000000	40	40.314	0.000000
2) DSC Temperature Scan
	1.000000	19.9401	0.000000	40.004	40.31	0.000000
	1.066667	20.9577	0.451426	40.67	40.371	0.000000
	1.133333	22.018	-0.746871	41.337	40.703	0.000000
	1.200000	23.1936	-1.214697	42.004	41.213	0.000000
	1.266667	24.0153	-1.367611	42.67	41.805	0.000000
	1.333333	24.4826	-1.476987	43.337	42.431	0.000000
	1.400000	24.7344	-1.584003	44.004	43.072	0.000000
	1.466667	24.8818	-1.689485	44.67	43.72	0.000000
	1.533333	24.9621	-1.799333	45.337	44.373	0.000000
	1.600000	25.0313	-1.902101	46.004	45.028	0.000000
	1.666667	25.0893	-2.006050	46.67	45.682	0.000000
	1.733333	25.1397	-2.113302	47.337	46.337	0.000000
	1.800000	25.2096	-2.218194	48.004	46.992	0.000000
	1.866667	25.2486	-2.321434	48.67	47.646	0.000000
	1.933333	25.2909	-2.425383	49.337	48.302	0.000000
	2.000000	25.3395	-2.530983	50.004	48.956	0.000000
	2.066667	25.3891	-2.636111	50.67	49.613	0.000000
	2.133333	25.4321	-2.739823	51.337	50.268	0.000000
	2.200000	25.4811	-2.843300	52.004	50.924	0.000000
	2.266667	25.5239	-2.948664	52.67	51.58	0.000000
	2.333333	25.5671	-3.050843	53.337	52.235	0.000000
	2.400000	25.6142	-3.161634	54.004	52.893	0.000000
	2.466667	25.6605	-3.260155	54.67	53.552	0.000000
	2.533333	25.6998	-3.368233	55.337	54.209	0.000000
	2.600000	25.739	-3.471473	56.004	54.869	0.000000
	2.666667	25.7819	-3.576366	56.67	55.526	0.000000
	2.733333	25.8224	-3.679252	57.337	56.185	0.000000
	2.800000	25.8613	-3.787920	58.004	56.844	0.000000
	2.866667	25.9082	-3.893284	58.67	57.504	0.000000
	2.933333	25.9527	-4.002306	59.337	58.162	0.000000
	3.000000	25.9986	-4.104131	60.004	58.821	0.000000
	3.066667	26.0429	-4.212917	60.67	59.48	0.000000
	3.133333	26.0832	-4.316629	61.337	60.138	0.000000
	3.200000	26.1255	-4.427421	62.004	60.797	0.000000
	3.266667	26.163	-4.530543	62.67	61.456	0.000000
	3.333333	26.2058	-4.637913	63.337	62.116	0.000000
	3.400000	26.2548	-4.745047	64.004	62.777	0.000000
	3.466667	26.3056	-4.853361	64.67	63.438	0.000000
	3.533333	26.3574	-4.956366	65.337	64.099	0.000000
	3.600000	26.404	-5.064797	66.004	64.763	0.000000
	3.666667	26.4585	-5.174527	66.67	65.423	0.000000
	3.733333	26.5091	-5.286263	67.337	66.084	0.000000
	3.800000	26.5539	-5.398942	68.004	66.744	0.000000
	3.866667	26.6162	-5.510088	68.67	67.403	0.000000
	3.933333	26.6743	-5.623711	69.337	68.063	0.000000
	4.000000	26.7395	-5.739931	70.004	68.724	0.000000
	4.066667	26.8047	-5.843407	70.67	69.385	0.000000
	4.133333	26.893	-5.959036	71.337	70.044	0.000000
	4.200000	26.9486	-6.070418	72.004	70.704	0.000000
	4.266667	27.0232	-6.181800	72.67	71.367	0.000000
	4.333333	27.0776	-6.293299	73.337	72.027	0.000000
	4.400000	27.1445	-6.408811	74.004	72.688	0.000000
	4.466667	27.2163	-6.520192	74.67	73.349	0.000000
	4.533333	27.2882	-6.634288	75.337	74.011	0.000000
	4.600000	27.3354	-6.744607	76.004	74.673	0.000000
	4.666667	27.4363	-6.860591	76.67	75.334	0.000000
	4.733333	27.5469	-6.970202	77.337	75.995	0.000000
	4.800000	27.6288	-7.088899	78.004	76.655	0.000000
	4.866667	27.7105	-7.198393	78.67	77.317	0.000000
	4.933333	27.7975	-7.312253	79.337	77.979	0.000000
	5.000000	27.8734	-7.428118	80.004	78.639	0.000000
	5.066667	27.9645	-7.538556	80.67	79.3	0.000000
	5.133333	28.05	-7.654421	81.337	79.961	0.000000
	5.200000	28.1996	-7.771112	82.004	80.624	0.000000
	5.266667	28.292	-7.885679	82.67	81.287	0.000000
	5.333333	28.3579	-8.000719	83.337	81.949	0.000000
	5.400000	28.5006	-8.113398	84.004	82.61	0.000000
	5.466667	28.6528	-8.228555	84.67	83.272	0.000000
	5.533333	28.7648	-8.343359	85.337	83.933	0.000000
	5.600000	28.8989	-8.460994	86.004	84.597	0.000000
	5.666667	29.0206	-8.575915	86.67	85.26	0.000000
	5.733333	29.1471	-8.691780	87.337	85.921	0.000000
	5.800000	29.2628	-8.807764	88.004	86.584	0.000000
	5.866667	29.4398	-8.924691	88.67	87.244	0.000000
	5.933333	29.5706	-9.042680	89.337	87.906	0.000000
	6.000000	29.6784	-9.159489	90.004	88.567	0.000000
	6.066667	29.7917	-9.275944	90.67	89.23	0.000000
	6.133333	29.8583	-9.391691	91.337	89.893	0.000000
	6.200000	29.932	-9.511450	92.004	90.558	0.000000
	6.266667	30.0134	-9.627905	92.67	91.223	0.000000
	6.333333	30.1401	-9.744715	93.337	91.887	0.000000
	6.400000	30.2649	-9.862468	94.004	92.55	0.000000
	6.466667	30.4374	-9.982227	94.67	93.212	0.000000
	6.533333	30.5659	-10.0992	95.337	93.875	0.000000
	6.600000	30.6962	-10.2194	96.004	94.537	0.000000
	6.666667	30.8749	-10.3426	96.67	95.2	0.000000
	6.733333	31.0017	-10.4555	97.337	95.862	0.000000
	6.800000	31.1339	-10.5732	98.004	96.523	0.000000
	6.866667	31.3728	-10.697	98.67	97.186	0.000000
	6.933333	31.5831	-10.8144	99.337	97.849	0.000000
	7.000000	31.8973	-10.9329	100.004	98.511	0.000000
	7.066667	32.2114	-11.0539	100.67	99.175	0.000000
	7.133333	32.5798	-11.1742	101.337	99.837	0.000000
	7.200000	32.8988	-11.2993	102.004	100.5	0.000000
	7.266667	33.2244	-11.4157	102.67	101.164	0.000000
	7.333333	33.5507	-11.5366	103.337	101.827	0.000000
	7.400000	33.8001	-11.6583	104.004	102.489	0.000000
	7.466667	34.0118	-11.7775	104.67	103.152	0.000000
	7.533333	34.2094	-11.899	105.337	103.816	0.000000
	7.600000	34.4442	-12.0232	106.004	104.479	0.000000
	7.666667	34.7716	-12.1419	106.67	105.143	0.000000
	7.733333	35.1132	-12.2672	107.337	105.806	0.000000
	7.800000	35.4856	-12.3888	108.004	106.468	0.000000
	7.866667	35.9888	-12.5127	108.67	107.131	0.000000
	7.933333	36.4558	-12.6364	109.337	107.795	0.000000
	8.000000	36.9333	-12.758	110.004	108.459	0.000000
	8.066667	37.4912	-12.8804	110.67	109.121	0.000000
	8.133333	37.9549	-13.0014	111.337	109.787	0.000000
	8.200000	38.3283	-13.1298	112.004	110.45	0.000000
	8.266667	38.6255	-13.2571	112.67	111.115	0.000000
	8.333333	38.7529	-13.3805	113.337	111.78	0.000000
	8.400000	38.7553	-13.5028	114.004	112.444	0.000000
	8.466667	38.7454	-13.6289	114.67	113.108	0.000000
	8.533333	38.4246	-13.7522	115.337	113.774	0.000000
	8.600000	37.8154	-13.8748	116.004	114.439	0.000000
	8.666667	37.1268	-14.0035	116.67	115.104	0.000000
	8.733333	36.4854	-14.1258	117.337	115.77	0.000000
	8.800000	35.9154	-14.2537	118.004	116.435	0.000000
	8.866667	35.4811	-14.3758	118.67	117.101	0.000000
	8.933333	35.0317	-14.5073	119.337	117.769	0.000000
	9.000000	34.593	-14.6306	120.004	118.435	0.000000
	9.066667	34.2681	-14.759	120.67	119.101	0.000000
	9.133333	33.9468	-14.8876	121.337	119.767	0.000000
	9.200000	33.7063	-15.0134	122.004	120.434	0.000000
	9.266667	33.4775	-15.14	122.67	121.099	0.000000
	9.333333	33.3755	-15.2661	123.337	121.763	0.000000
	9.400000	33.2693	-15.3916	124.004	122.428	0.000000
	9.466667	33.1755	-15.5217	124.67	123.095	0.000000
	9.533333	33.0403	-15.6626	125.337	123.761	0.000000
	9.600000	32.9955	-15.7782	126.004	124.425	0.000000
	9.666667	32.9524	-15.9061	126.67	125.093	0.000000
	9.733333	32.8862	-16.0339	127.337	125.757	0.000000
	9.800000	32.826	-16.164	128.004	126.422	0.000000
	9.866667	32.7959	-16.2942	128.67	127.089	0.000000
	9.933333	32.7756	-16.4232	129.337	127.755	0.000000
	10	32.7117	-16.553	130.004	128.422	0.000000
	10.0667	32.7165	-16.6783	130.67	129.087	0.000000
	10.1333	32.6855	-16.8132	131.337	129.753	0.000000
	10.2	32.6274	-16.939	132.004	130.418	0.000000
	10.2667	32.6808	-17.0724	132.67	131.085	0.000000
	10.3333	32.7139	-17.2008	133.337	131.751	0.000000
	10.4	32.7242	-17.3296	134.004	132.417	0.000000
	10.4667	32.7195	-17.4619	134.67	133.082	0.000000
	10.5333	32.6968	-17.5954	135.337	133.747	0.000000
	10.6	32.7136	-17.7253	136.004	134.411	0.000000
	10.6667	32.7044	-17.8555	136.67	135.078	0.000000
	10.7333	32.6844	-17.9862	137.337	135.744	0.000000
	10.8	32.7008	-18.1191	138.004	136.41	0.000000
	10.8667	32.7303	-18.2531	138.67	137.079	0.000000
	10.9333	32.74	-18.3839	139.337	137.746	0.000000
	11	32.7525	-18.5146	140.004	138.413	0.000000
	11.0667	32.7511	-18.6488	140.67	139.078	0.000000
	11.1333	32.7484	-18.7926	141.337	139.745	0.000000
	11.2	32.7389	-18.9206	142.004	140.411	0.000000
	11.2667	32.7197	-19.05	142.67	141.078	0.000000
	11.3333	32.7508	-19.1845	143.337	141.745	0.000000
	11.4	32.7928	-19.3173	144.004	142.409	0.000000
	11.4667	32.8048	-19.4495	144.67	143.076	0.000000
	11.5333	32.8066	-19.5838	145.337	143.742	0.000000
	11.6	32.8276	-19.7199	146.004	144.408	0.000000
	11.6667	32.8702	-19.8522	146.67	145.079	0.000000
	11.7333	32.8523	-19.9886	147.337	145.747	0.000000
	11.8	32.873	-20.1252	148.004	146.415	0.000000
	11.8667	32.9051	-20.2564	148.67	147.081	0.000000
	11.9333	32.9446	-20.3955	149.337	147.747	0.000000
	11.9833	32.9807	-20.4969	149.837	148.248	0.000000
3) DSC Isothermal
	12	32.9294	-20.4969	150	148.414	0.000000
	12.0167	32.8674	-20.4969	150	148.581	0.000000
	12.0333	32.324	-20.4969	150	148.734	0.000000
	12.05	31.7249	-20.4969	150	148.857	0.000000
	12.0667	31.3136	-20.4969	150	148.948	0.000000
	12.0833	30.9359	-20.4969	150	149.012	0.000000
	12.1	30.5063	-20.4969	150	149.056	0.000000
	12.1167	30.0327	-20.4969	150	149.085	0.000000
	12.1333	29.5566	-20.4969	150	149.104	0.000000
	12.15	29.1102	-20.4969	150	149.117	0.000000
	12.1667	28.7226	-20.4969	150	149.126	0.000000
	12.1833	28.4005	-20.4969	150	149.13	0.000000
	12.2	28.1378	-20.4969	150	149.134	0.000000
	12.2167	27.9282	-20.4969	150	149.135	0.000000
	12.2333	27.7666	-20.4969	150	149.136	0.000000
	12.25	27.6374	-20.4969	150	149.137	0.000000
	12.2667	27.5338	-20.4969	150	149.136	0.000000
	12.2833	27.4527	-20.4969	150	149.136	0.000000
	12.3	27.3874	-20.4969	150	149.136	0.000000
	12.3167	27.3355	-20.4969	150	149.135	0.000000
	12.3333	27.2918	-20.4969	150	149.134	0.000000
	12.35	27.257	-20.4969	150	149.133	0.000000
	12.3667	27.2313	-20.4969	150	149.13	0.000000
	12.3833	27.2077	-20.4969	150	149.127	0.000000
	12.4	27.1875	-20.4969	150	149.126	0.000000
	12.4167	27.1718	-20.4969	150	149.125	0.000000
	12.4333	27.1583	-20.4969	150	149.124	0.000000
	12.45	27.1433	-20.4969	150	149.122	0.000000
	12.4667	27.1333	-20.4969	150	149.121	0.000000
	12.4833	27.127	-20.4969	150	149.12	0.000000
	12.5	27.1184	-20.4969	150	149.119	0.000000
	12.5167	27.1114	-20.4969	150	149.118	0.000000
	12.5333	27.1032	-20.4969	150	149.118	0.000000
	12.55	27.0963	-20.4969	150	149.116	0.000000
	12.5667	27.0907	-20.4969	150	149.115	0.000000
	12.5833	27.0868	-20.4969	150	149.114	0.000000
	12.6	27.0835	-20.4969	150	149.113	0.000000
	12.6167	27.08	-20.4969	150	149.111	0.000000
	12.6333	27.0757	-20.4969	150	149.11	0.000000
	12.65	27.0719	-20.4969	150	149.109	0.000000
	12.6667	27.0672	-20.4969	150	149.108	0.000000
	12.6833	27.0641	-20.4969	150	149.107	0.000000
	12.7	27.062	-20.4969	150	149.106	0.000000
	12.7167	27.0595	-20.4969	150	149.105	0.000000
	12.7333	27.0569	-20.4969	150	149.104	0.000000
	12.75	27.0526	-20.4969	150	149.103	0.000000
	12.7667	27.053	-20.4969	150	149.101	0.000000
	12.7833	27.0502	-20.4969	150	149.1	0.000000
	12.8	27.0483	-20.4969	150	149.1	0.000000
	12.8167	27.0452	-20.4969	150	149.098	0.000000
	12.8333	27.0442	-20.4969	150	149.097	0.000000
	12.85	27.0442	-20.4969	150	149.097	0.000000
	12.8667	27.0429	-20.4969	150	149.095	0.000000
	12.8833	27.0408	-20.4969	150	149.094	0.000000
	12.9	27.0396	-20.4969	150	149.092	0.000000
	12.9167	27.0392	-20.4969	150	149.091	0.000000
	12.9333	27.0369	-20.4969	150	149.09	0.000000
	12.95	27.0359	-20.4969	150	149.089	0.000000
	12.9667	27.0372	-20.4969	150	149.088	0.000000
	12.9833	27.0371	-20.4969	150	149.087	0.000000
	13	27.0363	-20.4969	150	149.086	0.000000
	13.0167	27.0367	-20.4969	150	149.084	0.000000
	13.0333	27.0359	-20.4969	150	149.081	0.000000
	13.05	27.0357	-20.4969	150	149.079	0.000000
	13.0667	27.0337	-20.4969	150	149.079	0.000000
	13.0833	27.0325	-20.4969	150	149.077	0.000000
	13.1	27.0331	-20.4969	150	149.076	0.000000
	13.1167	27.0318	-20.4969	150	149.075	0.000000
	13.1333	27.0307	-20.4969	150	149.073	0.000000
	13.15	27.0311	-20.4969	150	149.072	0.000000
	13.1667	27.0316	-20.4969	150	149.07	0.000000
	13.1833	27.0326	-20.4969	150	149.069	0.000000
	13.2	27.0312	-20.4969	150	149.069	0.000000
	13.2167	27.031	-20.4969	150	149.067	0.000000
	13.2333	27.0286	-20.4969	150	149.066	0.000000
	13.25	27.0285	-20.4969	150	149.065	0.000000
	13.2667	27.0277	-20.4969	150	149.064	0.000000
	13.2833	27.027	-20.4969	150	149.063	0.000000
	13.3	27.028	-20.4969	150	149.062	0.000000
	13.3167	27.0278	-20.4969	150	149.06	0.000000
	13.3333	27.0268	-20.4969	150	149.059	0.000000
	13.35	27.0242	-20.4969	150	149.058	0.000000
	13.3667	27.0246	-20.4969	150	149.057	0.000000
	13.3833	27.0255	-20.4969	150	149.056	0.000000
	13.4	27.0273	-20.4969	150	149.055	0.000000
	13.4167	27.0293	-20.4969	150	149.054	0.000000
	13.4333	27.0279	-20.4969	150	149.053	0.000000
	13.45	27.0255	-20.4969	150	149.052	0.000000
	13.4667	27.0251	-20.4969	150	149.051	0.000000
	13.4833	27.0246	-20.4969	150	149.05	0.000000
	13.5	27.0252	-20.4969	150	149.049	0.000000
	13.5167	27.0261	-20.4969	150	149.048	0.000000
	13.5333	27.027	-20.4969	150	149.047	0.000000
	13.55	27.0262	-20.4969	150	149.046	0.000000
	13.5667	27.0259	-20.4969	150	149.045	0.000000
	13.5833	27.0259	-20.4969	150	149.043	0.000000
	13.6	27.0245	-20.4969	150	149.043	0.000000
	13.6167	27.0244	-20.4969	150	149.042	0.000000
	13.6333	27.0246	-20.4969	150	149.042	0.000000
	13.65	27.0266	-20.4969	150	149.039	0.000000
	13.6667	27.0268	-20.4969	150	149.038	0.000000
	13.6833	27.0262	-20.4969	150	149.037	0.000000
	13.7	27.0274	-20.4969	150	149.034	0.000000
	13.7167	27.0262	-20.4969	150	149.031	0.000000
	13.7333	27.027	-20.4969	150	149.03	0.000000
[...]
	81.5	35.5508	-10.4063	85.004	81.616	0.000000
	81.6	36.2302	-10.5726	86.004	82.629	0.000000
	81.7	36.9344	-10.742	87.004	83.641	0.000000
	81.8	37.6611	-10.928	88.004	84.652	0.000000
	81.9	38.2229	-11.0792	89.004	85.663	0.000000
	82	38.6006	-11.2504	90.004	86.673	0.000000
	82.1	38.7436	-11.4211	91.004	87.686	0.000000
	82.2	38.4701	-11.5934	92.004	88.698	0.000000
	82.3	37.911	-11.7621	93.004	89.713	0.000000
	82.4	36.9766	-11.9362	94.004	90.727	0.000000
	82.5	35.84	-12.1078	95.004	91.742	0.000000
	82.6	34.5788	-12.2801	96.004	92.761	0.000000
	82.7	33.4444	-12.4523	97.004	93.774	0.000000
	82.8	32.5707	-12.6267	98.004	94.788	0.000000
	82.9	31.8743	-12.803	99.004	95.799	0.000000
	83	31.4764	-12.9762	100.004	96.811	0.000000
	83.1	31.1861	-13.1496	101.004	97.821	0.000000
	83.2	30.9936	-13.329	102.004	98.833	0.000000
	83.3	30.8279	-13.5067	103.004	99.845	0.000000
	83.4	30.7696	-13.6841	104.004	100.858	0.000000
	83.5	30.6728	-13.9221	105.004	101.871	0.000000
	83.6	30.582	-14.1039	106.004	102.881	0.000000
	83.7	30.5833	-14.2853	107.004	103.891	0.000000
	83.8	30.5944	-14.4653	108.004	104.901	0.000000
	83.9	30.579	-14.6475	109.004	105.912	0.000000
	84	30.6404	-14.826	110.004	106.921	0.000000
	84.1	30.5872	-15.0066	111.004	107.932	0.000000
	84.2	30.6502	-15.1904	112.004	108.945	0.000000
	84.3	30.7693	-15.3721	113.004	109.956	0.000000
	84.4	30.7723	-15.553	114.004	110.967	0.000000
	84.5	30.7955	-15.7382	115.004	111.981	0.000000
	84.6	30.8592	-15.9139	116.004	112.991	0.000000
	84.7	30.8861	-16.105	117.004	114.003	0.000000
	84.8	30.9998	-16.2903	118.004	115.012	0.000000
	84.9	31.1343	-16.475	119.004	116.021	0.000000
	85	31.1448	-16.6604	120.004	117.03	0.000000
	85.1	31.2045	-16.8455	121.004	118.042	0.000000
	85.2	31.3445	-17.0317	122.004	119.054	0.000000
	85.3	31.4031	-17.2173	123.004	120.065	0.000000
	85.4	31.4412	-17.4076	124.004	121.075	0.000000
	85.5	31.5315	-17.5961	125.004	122.084	0.000000
	85.6	31.6092	-17.7839	126.004	123.095	0.000000
	85.7	31.6735	-17.972	127.004	124.104	0.000000
	85.8	31.8056	-18.167	128.004	125.111	0.000000
	85.9	31.8592	-18.357	129.004	126.121	0.000000
	86	31.9432	-18.5459	130.004	127.133	0.000000
	86.1	32.0159	-18.7348	131.004	128.143	0.000000
	86.2	32.0144	-18.928	132.004	129.153	0.000000
	86.3	32.0913	-19.1211	133.004	130.162	0.000000
	86.4	32.1815	-19.3149	134.004	131.173	0.000000
	86.5	32.3162	-19.5051	135.004	132.187	0.000000
	86.6	32.41	-19.7006	136.004	133.193	0.000000
	86.7	32.5519	-19.8971	137.004	134.203	0.000000
	86.8	32.6188	-20.0927	138.004	135.212	0.000000
	86.9	32.6639	-20.2876	139.004	136.223	0.000000
	87	32.7875	-20.4814	140.004	137.233	0.000000
	87.1	32.9156	-20.6798	141.004	138.244	0.000000
	87.2	33.0309	-20.879	142.004	139.254	0.000000
	87.3	33.1415	-21.0783	143.004	140.263	0.000000
	87.4	33.2534	-21.273	144.004	141.273	0.000000
	87.5	33.3553	-21.4692	145.004	142.282	0.000000
	87.6	33.4522	-21.6683	146.004	143.291	0.000000
	87.7	33.5559	-21.8699	147.004	144.301	0.000000
	87.8	33.6804	-22.069	148.004	145.311	0.000000
	87.9	33.7313	-22.2713	149.004	146.321	0.000000
	87.9833	33.8558	-22.4419	149.837	147.162	0.000000
11) DSC Isothermal
	88	33.8145	-22.4419	150	147.331	0.000000
	88.0167	33.7377	-22.4419	150	147.499	0.000000
	88.0333	33.0649	-22.4419	150	147.652	0.000000
	88.05	32.3912	-22.4419	150	147.773	0.000000
	88.0667	31.9844	-22.4419	150	147.862	0.000000
	88.0833	31.6217	-22.4419	150	147.922	0.000000
	88.1	31.2038	-22.4419	150	147.963	0.000000
	88.1167	30.7477	-22.4419	150	147.99	0.000000
	88.1333	30.2999	-22.4419	150	148.007	0.000000
	88.15	29.9044	-22.4419	150	148.019	0.000000
	88.1667	29.5813	-22.4419	150	148.026	0.000000
	88.1833	29.3243	-22.4419	150	148.03	0.000000
	88.2	29.1281	-22.4419	150	148.035	0.000000
	88.2167	28.98	-22.4419	150	148.036	0.000000
	88.2333	28.8666	-22.4419	150	148.038	0.000000
	88.25	28.7851	-22.4419	150	148.039	0.000000
	88.2667	28.7229	-22.4419	150	148.039	0.000000
	88.2833	28.6775	-22.4419	150	148.04	0.000000
	88.3	28.6429	-22.4419	150	148.04	0.000000
	88.3167	28.6192	-22.4419	150	148.041	0.000000
	88.3333	28.6	-22.4419	150	148.041	0.000000
	88.35	28.5863	-22.4419	150	148.041	0.000000
	88.3667	28.5759	-22.4419	150	148.041	0.000000
	88.3833	28.5664	-22.4419	150	148.041	0.000000
	88.4	28.5613	-22.4419	150	148.042	0.000000
	88.4167	28.557	-22.4419	150	148.041	0.000000
	88.4333	28.5548	-22.4419	150	148.042	0.000000
	88.45	28.5515	-22.4419	150	148.041	0.000000
	88.4667	28.5472	-22.4419	150	148.041	0.000000
	88.4833	28.5449	-22.4419	150	148.041	0.000000
	88.5	28.5429	-22.4419	150	148.041	0.000000
	88.5167	28.5419	-22.4419	150	148.042	0.000000
	88.5333	28.5426	-22.4419	150	148.042	0.000000
	88.55	28.5406	-22.4419	150	148.043	0.000000
	88.5667	28.5389	-22.4419	150	148.042	0.000000
	88.5833	28.5389	-22.4419	150	148.042	0.000000
	88.6	28.5389	-22.4419	150	148.042	0.000000
	88.6167	28.5378	-22.4419	150	148.042	0.000000
	88.6333	28.5389	-22.4419	150	148.043	0.000000
	88.65	28.5376	-22.4419	150	148.042	0.000000
	88.6667	28.536	-22.4419	150	148.042	0.000000
	88.6833	28.5353	-22.4419	150	148.042	0.000000
	88.7	28.5364	-22.4419	150	148.043	0.000000
	88.7167	28.536	-22.4419	150	148.042	0.000000
	88.7333	28.5346	-22.4419	150	148.042	0.000000
	88.75	28.5341	-22.4419	150	148.042	0.000000
	88.7667	28.5336	-22.4419	150	148.042	0.000000
	88.7833	28.5344	-22.4419	150	148.043	0.000000
	88.8	28.5331	-22.4419	150	148.043	0.000000
	88.8167	28.5336	-22.4419	150	148.043	0.000000
	88.8333	28.5331	-22.4419	150	148.043	0.000000
	88.85	28.5336	-22.4419	150	148.042	0.000000
	88.8667	28.5346	-22.4419	150	148.042	0.000000
	88.8833	28.5341	-22.4419	150	148.042	0.000000
	88.9	28.5331	-22.4419	150	148.043	0.000000
	88.9167	28.5326	-22.4419	150	148.042	0.000000
	88.9333	28.5336	-22.4419	150	148.043	0.000000
	88.95	28.534	-22.4419	150	148.044	0.000000
	88.9667	28.5327	-22.4419	150	148.042	0.000000
	88.9833	28.5313	-22.4419	150	148.044	0.000000
	89	28.532	-22.4419	150	148.044	0.000000
	89.0167	28.5339	-22.4419	150	148.045	0.000000
	89.0333	28.5336	-22.4419	150	148.043	0.000000
	89.05	28.5326	-22.4419	150	148.043	0.000000
	89.0667	28.5354	-22.4419	150	148.042	0.000000
	89.0833	28.5362	-22.4419	150	148.043	0.000000
	89.1	28.5331	-22.4419	150	148.044	0.000000
	89.1167	28.5326	-22.4419	150	148.045	0.000000
	89.1333	28.5324	-22.4419	150	148.043	0.000000
	89.15	28.5328	-22.4419	150	148.043	0.000000
	89.1667	28.5324	-22.4419	150	148.044	0.000000
	89.1833	28.5316	-22.4419	150	148.043	0.000000
	89.2	28.5338	-22.4419	150	148.044	0.000000
	89.2167	28.5349	-22.4419	150	148.044	0.000000
	89.2333	28.5339	-22.4419	150	148.044	0.000000
	89.25	28.5337	-22.4419	150	148.043	0.000000
	89.2667	28.5328	-22.4419	150	148.043	0.000000
	89.2833	28.5351	-22.4419	150	148.043	0.000000
	89.3	28.5338	-22.4419	150	148.044	0.000000
	89.3167	28.5333	-22.4419	150	148.043	0.000000
	89.3333	28.5341	-22.4419	150	148.044	0.000000
	89.35	28.5339	-22.4419	150	148.043	0.000000
	89.3667	28.5337	-22.4419	150	148.043	0.000000
	89.3833	28.5344	-22.4419	150	148.042	0.000000
	89.4	28.534	-22.4419	150	148.042	0.000000
	89.4167	28.5338	-22.4419	150	148.043	0.000000
	89.4333	28.5339	-22.4419	150	148.044	0.000000
	89.45	28.5332	-22.4419	150	148.044	0.000000
	89.4667	28.5331	-22.4419	150	148.044	0.000000
	89.4833	28.5339	-22.4419	150	148.044	0.000000
	89.5	28.5338	-22.4419	150	148.044	0.000000
	89.5167	28.5344	-22.4419	150	148.044	0.000000
	89.5333	28.5344	-22.4419	150	148.044	0.000000
	89.55	28.5341	-22.4419	150	148.044	0.000000
	89.5667	28.5339	-22.4419	150	148.044	0.000000
	89.5833	28.5349	-22.4419	150	148.046	0.000000
	89.6	28.5357	-22.4419	150	148.045	0.000000
	89.6167	28.5352	-22.4419	150	148.044	0.000000
	89.6333	28.5344	-22.4419	150	148.044	0.000000
	89.65	28.5354	-22.4419	150	148.045	0.000000
	89.6667	28.5379	-22.4419	150	148.044	0.000000
	89.6833	28.5375	-22.4419	150	148.043	0.000000
	89.7	28.5382	-22.4419	150	148.044	0.000000
	89.7167	28.5377	-22.4419	150	148.043	0.000000
	89.7333	28.5375	-22.4419	150	148.044	0.000000
	89.75	28.5372	-22.4419	150	148.044	0.000000
	89.7667	28.5377	-22.4419	150	148.045	0.000000
	89.7833	28.5362	-22.4419	150	148.045	0.000000
	89.8	28.5372	-22.4419	150	148.045	0.000000
	89.8167	28.5377	-22.4419	150	148.044	0.000000
	89.8333	28.537	-22.4419	150	148.045	0.000000
	89.85	28.5364	-22.4419	150	148.045	0.000000
	89.8667	28.5362	-22.4419	150	148.044	0.000000
	89.8833	28.5363	-22.4419	150	148.044	0.000000
	89.9	28.5364	-22.4419	150	148.044	0.000000
	89.9167	28.5364	-22.4419	150	148.044	0.000000
	89.9333	28.537	-22.4419	150	148.043	0.000000
	89.95	28.5365	-22.4419	150	148.043	0.000000
	89.9667	28.5382	-22.4419	150	148.044	0.000000
	89.9833	28.539	-22.4419	150	148.044	0.000000